Model,MSO2024
Firmware Version,1.52

Point Format,Y
Horizontal Units,S
Horizontal Scale,0.01
Sample Interval,3.2e-05
Filter Frequency,2e+08
Record Length,3125
Gating,0.0% to 100.0%
Probe Attenuation,1
Vertical Units,V
Vertical Offset,0
Vertical Scale,0.02
Label,
TIME,CH1
1.3200e-02,0.005925
1.3232e-02,0.00645
1.3264e-02,0.00623125
1.3296e-02,0.00579688
1.3328e-02,0.00596875
1.3360e-02,0.00592188
1.3392e-02,0.00538125
1.3424e-02,0.005075
1.3456e-02,0.00514063
1.3488e-02,0.00505
1.3520e-02,0.00533125
1.3552e-02,0.00521563
1.3584e-02,0.00507188
1.3616e-02,0.0055
1.3648e-02,0.00560313
1.3680e-02,0.00560938
1.3712e-02,0.005425
1.3744e-02,0.00513438
1.3776e-02,0.00517813
1.3808e-02,0.00512188
1.3840e-02,0.00536563
1.3872e-02,0.005325
1.3904e-02,0.00523125
1.3936e-02,0.00529375
1.3968e-02,0.00538125
1.4000e-02,0.00512813
1.4032e-02,0.00506875
1.4064e-02,0.004675
1.4096e-02,0.00428125
1.4128e-02,0.00508125
1.4160e-02,0.00493125
1.4192e-02,0.0052375
1.4224e-02,0.00527188
1.4256e-02,0.00518125
1.4288e-02,0.00503438
1.4320e-02,0.005
1.4352e-02,0.00477188
1.4384e-02,0.004775
1.4416e-02,0.00535
1.4448e-02,0.0055125
1.4480e-02,0.0056625
1.4512e-02,0.0055
1.4544e-02,0.00519063
1.4576e-02,0.00507188
1.4608e-02,0.00543438
1.4640e-02,0.00522188
1.4672e-02,0.00547188
1.4704e-02,0.00551875
1.4736e-02,0.00495
1.4768e-02,0.00461875
1.4800e-02,0.00455938
1.4832e-02,0.00459063
1.4864e-02,0.004725
1.4896e-02,0.00494688
1.4928e-02,0.00501875
1.4960e-02,0.00519688
1.4992e-02,0.00554688
1.5024e-02,0.00567813
1.5056e-02,0.00550938
1.5088e-02,0.00529688
1.5120e-02,0.00495
1.5152e-02,0.00503438
1.5184e-02,0.00510313
1.5216e-02,0.00535938
1.5248e-02,0.00595938
1.5280e-02,0.00564688
1.5312e-02,0.00523125
1.5344e-02,0.00514375
1.5376e-02,0.005325
1.5408e-02,0.005325
1.5440e-02,0.00520625
1.5472e-02,0.00515313
1.5504e-02,0.00572813
1.5536e-02,0.00606875
1.5568e-02,0.00608125
1.5600e-02,0.00605938
1.5632e-02,0.006
1.5664e-02,0.00619688
1.5696e-02,0.0060375
1.5728e-02,0.00634063
1.5760e-02,0.00674688
1.5792e-02,0.0067125
1.5824e-02,0.00645938
1.5856e-02,0.00623125
1.5888e-02,0.00613438
1.5920e-02,0.0062125
1.5952e-02,0.00621563
1.5984e-02,0.00595938
1.6016e-02,0.00572188
1.6048e-02,0.00583125
1.6080e-02,0.0060375
1.6112e-02,0.00576875
1.6144e-02,0.00573125
1.6176e-02,0.00567188
1.6208e-02,0.00550938
1.6240e-02,0.00529688
1.6272e-02,0.00547188
1.6304e-02,0.00545313
1.6336e-02,0.00508438
1.6368e-02,0.00514063
1.6400e-02,0.0050625
1.6432e-02,0.00497813
1.6464e-02,0.00485
1.6496e-02,0.00496563
1.6528e-02,0.00487813
1.6560e-02,0.00472188
1.6592e-02,0.00440625
1.6624e-02,0.00426563
1.6656e-02,0.00450938
1.6688e-02,0.00464688
1.6720e-02,0.0047375
1.6752e-02,0.00473125
1.6784e-02,0.00448125
1.6816e-02,0.00442813
1.6848e-02,0.0046875
1.6880e-02,0.00485625
1.6912e-02,0.00517813
1.6944e-02,0.00511875
1.6976e-02,0.00500938
1.7008e-02,0.00520625
1.7040e-02,0.00495938
1.7072e-02,0.0048375
1.7104e-02,0.0050375
1.7136e-02,0.0050125
1.7168e-02,0.0047625
1.7200e-02,0.00467813
1.7232e-02,0.00484375
1.7264e-02,0.0049875
1.7296e-02,0.0047875
1.7328e-02,0.00434063
1.7360e-02,0.00437813
1.7392e-02,0.00454688
1.7424e-02,0.00501563
1.7456e-02,0.00543438
1.7488e-02,0.00527813
1.7520e-02,0.00538438
1.7552e-02,0.00518438
1.7584e-02,0.00505625
1.7616e-02,0.00525938
1.7648e-02,0.0053375
1.7680e-02,0.00553125
1.7712e-02,0.00575625
1.7744e-02,0.0054875
1.7776e-02,0.00525625
1.7808e-02,0.00528438
1.7840e-02,0.00566875
1.7872e-02,0.00546563
1.7904e-02,0.005325
1.7936e-02,0.00545625
1.7968e-02,0.00532813
1.8000e-02,0.00557188
1.8032e-02,0.00552813
1.8064e-02,0.00549375
1.8096e-02,0.00533438
1.8128e-02,0.00507813
1.8160e-02,0.00509375
1.8192e-02,0.00504688
1.8224e-02,0.00544063
1.8256e-02,0.00535625
1.8288e-02,0.00525938
1.8320e-02,0.00529063
1.8352e-02,0.00569063
1.8384e-02,0.00577188
1.8416e-02,0.00549688
1.8448e-02,0.00536875
1.8480e-02,0.00494063
1.8512e-02,0.00523125
1.8544e-02,0.00497813
1.8576e-02,0.00499375
1.8608e-02,0.00504375
1.8640e-02,0.0055375
1.8672e-02,0.00548438
1.8704e-02,0.005475
1.8736e-02,0.005325
1.8768e-02,0.00515
1.8800e-02,0.00523438
1.8832e-02,0.00550313
1.8864e-02,0.00526563
1.8896e-02,0.00510625
1.8928e-02,0.00504063
1.8960e-02,0.00528438
1.8992e-02,0.0051375
1.9024e-02,0.00496875
1.9056e-02,0.00504063
1.9088e-02,0.00494375
1.9120e-02,0.00488438
1.9152e-02,0.00490313
1.9184e-02,0.00474688
1.9216e-02,0.00536563
1.9248e-02,0.00564375
1.9280e-02,0.00530625
1.9312e-02,0.00512813
1.9344e-02,0.00525
1.9376e-02,0.00535313
1.9408e-02,0.00560938
1.9440e-02,0.0057625
1.9472e-02,0.00575625
1.9504e-02,0.00581563
1.9536e-02,0.00554688
1.9568e-02,0.00520938
1.9600e-02,0.00534063
1.9632e-02,0.0053125
1.9664e-02,0.005325
1.9696e-02,0.00537188
1.9728e-02,0.00505313
1.9760e-02,0.00567813
1.9792e-02,0.00558125
1.9824e-02,0.00540938
1.9856e-02,0.00544688
1.9888e-02,0.005475
1.9920e-02,0.00553438
1.9952e-02,0.00553125
1.9984e-02,0.00552188
2.0016e-02,0.00548125
2.0048e-02,0.00565938
2.0080e-02,0.00590625
2.0112e-02,0.00579063
2.0144e-02,0.0055625
2.0176e-02,0.00559063
2.0208e-02,0.00593438
2.0240e-02,0.00608438
2.0272e-02,0.00574063
2.0304e-02,0.00576875
2.0336e-02,0.00579375
2.0368e-02,0.00562188
2.0400e-02,0.00554063
2.0432e-02,0.00604375
2.0464e-02,0.00584688
2.0496e-02,0.00621563
2.0528e-02,0.00637813
2.0560e-02,0.00649375
2.0592e-02,0.00654375
2.0624e-02,0.00650938
2.0656e-02,0.00618125
2.0688e-02,0.00626875
2.0720e-02,0.00628438
2.0752e-02,0.00644375
2.0784e-02,0.00645313
2.0816e-02,0.00657813
2.0848e-02,0.00669063
2.0880e-02,0.00655
2.0912e-02,0.00685938
2.0944e-02,0.00663125
2.0976e-02,0.00652188
2.1008e-02,0.00690313
2.1040e-02,0.00655938
2.1072e-02,0.00613438
2.1104e-02,0.00659375
2.1136e-02,0.00722813
2.1168e-02,0.00734688
2.1200e-02,0.007225
2.1232e-02,0.00675
2.1264e-02,0.00640938
2.1296e-02,0.0063375
2.1328e-02,0.00595313
2.1360e-02,0.0062
2.1392e-02,0.00626875
2.1424e-02,0.0064625
2.1456e-02,0.00629688
2.1488e-02,0.00603125
2.1520e-02,0.00615938
2.1552e-02,0.00625
2.1584e-02,0.0062375
2.1616e-02,0.00609688
2.1648e-02,0.00559375
2.1680e-02,0.00545625
2.1712e-02,0.00585
2.1744e-02,0.00630625
2.1776e-02,0.00673125
2.1808e-02,0.00680938
2.1840e-02,0.0067875
2.1872e-02,0.00625
2.1904e-02,0.00597188
2.1936e-02,0.0062
2.1968e-02,0.00638125
2.2000e-02,0.00658125
2.2032e-02,0.00668125
2.2064e-02,0.00693438
2.2096e-02,0.00649375
2.2128e-02,0.00677188
2.2160e-02,0.00743125
2.2192e-02,0.00762188
2.2224e-02,0.00737813
2.2256e-02,0.00771563
2.2288e-02,0.00745
2.2320e-02,0.00738438
2.2352e-02,0.00760938
2.2384e-02,0.00799063
2.2416e-02,0.00857813
2.2448e-02,0.00841563
2.2480e-02,0.00785938
2.2512e-02,0.00827188
2.2544e-02,0.0086375
2.2576e-02,0.00869063
2.2608e-02,0.00849688
2.2640e-02,0.00944375
2.2672e-02,0.0103875
2.2704e-02,0.0109219
2.2736e-02,0.0111031
2.2768e-02,0.0109563
2.2800e-02,0.0103656
2.2832e-02,0.0101844
2.2864e-02,0.0107625
2.2896e-02,0.0110063
2.2928e-02,0.0118406
2.2960e-02,0.0125094
2.2992e-02,0.0127375
2.3024e-02,0.0136281
2.3056e-02,0.0141719
2.3088e-02,0.0147656
2.3120e-02,0.0149344
2.3152e-02,0.0156094
2.3184e-02,0.0167031
2.3216e-02,0.0174313
2.3248e-02,0.0176813
2.3280e-02,0.0177031
2.3312e-02,0.0187875
2.3344e-02,0.0195656
2.3376e-02,0.0210531
2.3408e-02,0.0231156
2.3440e-02,0.0235906
2.3472e-02,0.0234531
2.3504e-02,0.0245563
2.3536e-02,0.0262563
2.3568e-02,0.0265531
2.3600e-02,0.0264688
2.3632e-02,0.02805
2.3664e-02,0.0291938
2.3696e-02,0.0293656
2.3728e-02,0.0295625
2.3760e-02,0.0300188
2.3792e-02,0.0298094
2.3824e-02,0.0301188
2.3856e-02,0.029925
2.3888e-02,0.0294281
2.3920e-02,0.0294406
2.3952e-02,0.0287219
2.3984e-02,0.0275844
2.4016e-02,0.027325
2.4048e-02,0.0268063
2.4080e-02,0.0266094
2.4112e-02,0.0254313
2.4144e-02,0.0241313
2.4176e-02,0.0227656
2.4208e-02,0.0220531
2.4240e-02,0.0219
2.4272e-02,0.0214875
2.4304e-02,0.0208094
2.4336e-02,0.0208781
2.4368e-02,0.0204969
2.4400e-02,0.0205656
2.4432e-02,0.0213688
2.4464e-02,0.0229031
2.4496e-02,0.0242594
2.4528e-02,0.0248969
2.4560e-02,0.0248781
2.4592e-02,0.0252906
2.4624e-02,0.0265375
2.4656e-02,0.0275313
2.4688e-02,0.0290281
2.4720e-02,0.0302781
2.4752e-02,0.0315375
2.4784e-02,0.032925
2.4816e-02,0.0340906
2.4848e-02,0.0344281
2.4880e-02,0.0346063
2.4912e-02,0.034775
2.4944e-02,0.0371719
2.4976e-02,0.0391563
2.5008e-02,0.0403906
2.5040e-02,0.0408656
2.5072e-02,0.0425281
2.5104e-02,0.0449844
2.5136e-02,0.0477188
2.5168e-02,0.0503438
2.5200e-02,0.0530344
2.5232e-02,0.056575
2.5264e-02,0.0599469
2.5296e-02,0.0640969
2.5328e-02,0.0669969
2.5360e-02,0.0692344
2.5392e-02,0.0735563
2.5424e-02,0.0777062
2.5456e-02,0.0815406
2.5488e-02,0.0862344
2.5520e-02,0.0896219
2.5552e-02,0.0922969
2.5584e-02,0.0968781
2.5616e-02,0.101012
2.5648e-02,0.102956
2.5680e-02,0.106362
2.5712e-02,0.109809
2.5744e-02,0.109834
2.5776e-02,0.111362
2.5808e-02,0.11315
2.5840e-02,0.112994
2.5872e-02,0.112062
2.5904e-02,0.110803
2.5936e-02,0.109116
2.5968e-02,0.108678
2.6000e-02,0.107275
2.6032e-02,0.106381
2.6064e-02,0.104762
2.6096e-02,0.100697
2.6128e-02,0.0962625
2.6160e-02,0.0935687
2.6192e-02,0.0897406
2.6224e-02,0.0861969
2.6256e-02,0.0828031
2.6288e-02,0.0775156
2.6320e-02,0.0727375
2.6352e-02,0.0690313
2.6384e-02,0.0643094
2.6416e-02,0.0609875
2.6448e-02,0.0581813
2.6480e-02,0.0546688
2.6512e-02,0.05305
2.6544e-02,0.0526531
2.6576e-02,0.0508625
2.6608e-02,0.0498031
2.6640e-02,0.048975
2.6672e-02,0.0482281
2.6704e-02,0.0479844
2.6736e-02,0.0470656
2.6768e-02,0.0477188
2.6800e-02,0.04975
2.6832e-02,0.0504313
2.6864e-02,0.0498375
2.6896e-02,0.04905
2.6928e-02,0.0496438
2.6960e-02,0.0523563
2.6992e-02,0.0536531
2.7024e-02,0.0552406
2.7056e-02,0.0561281
2.7088e-02,0.0567125
2.7120e-02,0.0583656
2.7152e-02,0.0588813
2.7184e-02,0.0597406
2.7216e-02,0.0605531
2.7248e-02,0.063375
2.7280e-02,0.0672906
2.7312e-02,0.0695594
2.7344e-02,0.0713375
2.7376e-02,0.0736531
2.7408e-02,0.0741781
2.7440e-02,0.0759969
2.7472e-02,0.0804906
2.7504e-02,0.0833594
2.7536e-02,0.0850687
2.7568e-02,0.0876187
2.7600e-02,0.0913656
2.7632e-02,0.0945031
2.7664e-02,0.0969125
2.7696e-02,0.102572
2.7728e-02,0.106434
2.7760e-02,0.106597
2.7792e-02,0.105828
2.7824e-02,0.109384
2.7856e-02,0.114316
2.7888e-02,0.116966
2.7920e-02,0.120181
2.7952e-02,0.123016
2.7984e-02,0.125469
2.8016e-02,0.128809
2.8048e-02,0.130525
2.8080e-02,0.131228
2.8112e-02,0.130637
2.8144e-02,0.132219
2.8176e-02,0.133597
2.8208e-02,0.133725
2.8240e-02,0.134087
2.8272e-02,0.134325
2.8304e-02,0.134078
2.8336e-02,0.132894
2.8368e-02,0.131856
2.8400e-02,0.131484
2.8432e-02,0.130697
2.8464e-02,0.129103
2.8496e-02,0.126528
2.8528e-02,0.122597
2.8560e-02,0.118959
2.8592e-02,0.115278
2.8624e-02,0.11265
2.8656e-02,0.107069
2.8688e-02,0.102894
2.8720e-02,0.0953469
2.8752e-02,0.0883281
2.8784e-02,0.0824062
2.8816e-02,0.0764844
2.8848e-02,0.0705781
2.8880e-02,0.0650844
2.8912e-02,0.059225
2.8944e-02,0.0544938
2.8976e-02,0.0502781
2.9008e-02,0.0480219
2.9040e-02,0.0454188
2.9072e-02,0.0427656
2.9104e-02,0.0414188
2.9136e-02,0.041275
2.9168e-02,0.0407063
2.9200e-02,0.0398719
2.9232e-02,0.0390844
2.9264e-02,0.0389219
2.9296e-02,0.0394219
2.9328e-02,0.0417438
2.9360e-02,0.0431406
2.9392e-02,0.0429813
2.9424e-02,0.0431625
2.9456e-02,0.0410031
2.9488e-02,0.0420875
2.9520e-02,0.0439531
2.9552e-02,0.0442219
2.9584e-02,0.0425375
2.9616e-02,0.0425125
2.9648e-02,0.0441219
2.9680e-02,0.0442656
2.9712e-02,0.0441156
2.9744e-02,0.0444031
2.9776e-02,0.0447156
2.9808e-02,0.0449219
2.9840e-02,0.0461688
2.9872e-02,0.0465813
2.9904e-02,0.0483094
2.9936e-02,0.0495469
2.9968e-02,0.0513594
3.0000e-02,0.0539281
3.0032e-02,0.0557
3.0064e-02,0.0585219
3.0096e-02,0.0611625
3.0128e-02,0.0648813
3.0160e-02,0.0682594
3.0192e-02,0.072
3.0224e-02,0.0737156
3.0256e-02,0.0779687
3.0288e-02,0.0818
3.0320e-02,0.0868562
3.0352e-02,0.0889906
3.0384e-02,0.0918156
3.0416e-02,0.0964531
3.0448e-02,0.0996406
3.0480e-02,0.101247
3.0512e-02,0.102472
3.0544e-02,0.105219
3.0576e-02,0.107091
3.0608e-02,0.108391
3.0640e-02,0.109919
3.0672e-02,0.109556
3.0704e-02,0.1079
3.0736e-02,0.105997
3.0768e-02,0.104441
3.0800e-02,0.100825
3.0832e-02,0.0987219
3.0864e-02,0.0959312
3.0896e-02,0.0945437
3.0928e-02,0.0928344
3.0960e-02,0.0893625
3.0992e-02,0.083675
3.1024e-02,0.0788812
3.1056e-02,0.0737406
3.1088e-02,0.0673281
3.1120e-02,0.0606188
3.1152e-02,0.0550938
3.1184e-02,0.0522781
3.1216e-02,0.0472156
3.1248e-02,0.0419375
3.1280e-02,0.0380469
3.1312e-02,0.0348594
3.1344e-02,0.0316406
3.1376e-02,0.0288563
3.1408e-02,0.0269656
3.1440e-02,0.0258594
3.1472e-02,0.0238
3.1504e-02,0.0221094
3.1536e-02,0.0214469
3.1568e-02,0.020825
3.1600e-02,0.0194625
3.1632e-02,0.0183188
3.1664e-02,0.017825
3.1696e-02,0.0180531
3.1728e-02,0.0176906
3.1760e-02,0.0179969
3.1792e-02,0.017575
3.1824e-02,0.0179719
3.1856e-02,0.0174313
3.1888e-02,0.0164688
3.1920e-02,0.0160188
3.1952e-02,0.0163
3.1984e-02,0.0159563
3.2016e-02,0.01625
3.2048e-02,0.0160438
3.2080e-02,0.0159531
3.2112e-02,0.01645
3.2144e-02,0.0174844
3.2176e-02,0.0179125
3.2208e-02,0.0179563
3.2240e-02,0.0175469
3.2272e-02,0.0174188
3.2304e-02,0.0182781
3.2336e-02,0.0180719
3.2368e-02,0.0177781
3.2400e-02,0.0185719
3.2432e-02,0.0189625
3.2464e-02,0.0192844
3.2496e-02,0.0200406
3.2528e-02,0.0200813
3.2560e-02,0.0202531
3.2592e-02,0.0207563
3.2624e-02,0.0221688
3.2656e-02,0.0220406
3.2688e-02,0.0216875
3.2720e-02,0.0211313
3.2752e-02,0.0215875
3.2784e-02,0.0222688
3.2816e-02,0.0225563
3.2848e-02,0.0225
3.2880e-02,0.0215469
3.2912e-02,0.02115
3.2944e-02,0.02095
3.2976e-02,0.020975
3.3008e-02,0.0215313
3.3040e-02,0.0208344
3.3072e-02,0.0198375
3.3104e-02,0.0184938
3.3136e-02,0.0175531
3.3168e-02,0.0168344
3.3200e-02,0.0159938
3.3232e-02,0.0155219
3.3264e-02,0.0146313
3.3296e-02,0.0135094
3.3328e-02,0.0128813
3.3360e-02,0.0122844
3.3392e-02,0.0110313
3.3424e-02,0.00990313
3.3456e-02,0.00891875
3.3488e-02,0.00865938
3.3520e-02,0.00775313
3.3552e-02,0.00729375
3.3584e-02,0.00700625
3.3616e-02,0.00679063
3.3648e-02,0.006475
3.3680e-02,0.00661875
3.3712e-02,0.00639063
3.3744e-02,0.00598125
3.3776e-02,0.00590625
3.3808e-02,0.00580313
3.3840e-02,0.0056125
3.3872e-02,0.00540938
3.3904e-02,0.00544375
3.3936e-02,0.00585625
3.3968e-02,0.00613125
3.4000e-02,0.00650313
3.4032e-02,0.0063375
3.4064e-02,0.00619375
3.4096e-02,0.00622813
3.4128e-02,0.00594375
3.4160e-02,0.00573438
3.4192e-02,0.00594063
3.4224e-02,0.00594063
3.4256e-02,0.00587188
3.4288e-02,0.00567188
3.4320e-02,0.005225
3.4352e-02,0.0053625
3.4384e-02,0.0053875
3.4416e-02,0.00553438
3.4448e-02,0.00559688
3.4480e-02,0.00559063
3.4512e-02,0.00571563
3.4544e-02,0.00569688
3.4576e-02,0.00571875
3.4608e-02,0.005625
3.4640e-02,0.00555
3.4672e-02,0.0054875
3.4704e-02,0.00540625
3.4736e-02,0.00518438
3.4768e-02,0.00540938
3.4800e-02,0.00556875
3.4832e-02,0.00630625
3.4864e-02,0.00620313
3.4896e-02,0.00630625
3.4928e-02,0.00611875
3.4960e-02,0.00621875
3.4992e-02,0.00617188
3.5024e-02,0.0068625
3.5056e-02,0.00722188
3.5088e-02,0.00669063
3.5120e-02,0.0064625
3.5152e-02,0.00706875
3.5184e-02,0.00739375
3.5216e-02,0.00739375
3.5248e-02,0.00691563
3.5280e-02,0.00709688
3.5312e-02,0.00684063
3.5344e-02,0.00655625
3.5376e-02,0.00695625
3.5408e-02,0.00645313
3.5440e-02,0.00588125
3.5472e-02,0.00610625
3.5504e-02,0.00610313
3.5536e-02,0.0062625
3.5568e-02,0.00640313
3.5600e-02,0.00678438
3.5632e-02,0.00687188
3.5664e-02,0.00644063
3.5696e-02,0.006175
3.5728e-02,0.00594688
3.5760e-02,0.005775
3.5792e-02,0.00569375
3.5824e-02,0.00549375
3.5856e-02,0.00495625
3.5888e-02,0.00577813
3.5920e-02,0.00597813
3.5952e-02,0.00578125
3.5984e-02,0.0054625
3.6016e-02,0.00541563
3.6048e-02,0.00533125
3.6080e-02,0.00533438
3.6112e-02,0.00555938
3.6144e-02,0.0056375
3.6176e-02,0.00537188
3.6208e-02,0.00538438
3.6240e-02,0.00535
3.6272e-02,0.00499063
3.6304e-02,0.00499375
3.6336e-02,0.00504688
3.6368e-02,0.00504375
3.6400e-02,0.00511563
3.6432e-02,0.00480313
3.6464e-02,0.00515625
3.6496e-02,0.00496875
3.6528e-02,0.00474375
3.6560e-02,0.00490313
3.6592e-02,0.00520625
3.6624e-02,0.00544375
3.6656e-02,0.00538438
3.6688e-02,0.00531563
3.6720e-02,0.00538125
3.6752e-02,0.0053125
3.6784e-02,0.0054875
3.6816e-02,0.00531563
3.6848e-02,0.0053875
3.6880e-02,0.00546875
3.6912e-02,0.00538125
3.6944e-02,0.00541563
3.6976e-02,0.00524063
3.7008e-02,0.00505938
3.7040e-02,0.00541563
3.7072e-02,0.00501875
3.7104e-02,0.00515
3.7136e-02,0.00534063
3.7168e-02,0.00529375
3.7200e-02,0.00524063
3.7232e-02,0.00511563
3.7264e-02,0.005275
3.7296e-02,0.005525
3.7328e-02,0.00590313
3.7360e-02,0.00582813
3.7392e-02,0.00545938
3.7424e-02,0.00546563
3.7456e-02,0.00559688
3.7488e-02,0.00586563
3.7520e-02,0.00617813
3.7552e-02,0.00635625
3.7584e-02,0.00605313
3.7616e-02,0.0057875
3.7648e-02,0.00543438
3.7680e-02,0.00524063
3.7712e-02,0.00514375
3.7744e-02,0.00548125
3.7776e-02,0.00562188
3.7808e-02,0.0058375
3.7840e-02,0.00580313
3.7872e-02,0.00564688
3.7904e-02,0.0058
3.7936e-02,0.00584063
3.7968e-02,0.00576875
3.8000e-02,0.00551563
3.8032e-02,0.00545313
3.8064e-02,0.0055
3.8096e-02,0.00544375
3.8128e-02,0.005325
3.8160e-02,0.00529375
3.8192e-02,0.00530313
3.8224e-02,0.00508125
3.8256e-02,0.00503438
3.8288e-02,0.00518125
3.8320e-02,0.00526563
3.8352e-02,0.00505
3.8384e-02,0.00465313
3.8416e-02,0.00481563
3.8448e-02,0.00487188
3.8480e-02,0.00501875
3.8512e-02,0.0047375
3.8544e-02,0.00521875
3.8576e-02,0.00510625
3.8608e-02,0.00528125
3.8640e-02,0.00503438
3.8672e-02,0.00575
3.8704e-02,0.00535313
3.8736e-02,0.00506875
3.8768e-02,0.00489688
3.8800e-02,0.00455
3.8832e-02,0.0047125
3.8864e-02,0.00479063
3.8896e-02,0.00505625
3.8928e-02,0.00533438
3.8960e-02,0.00561563
3.8992e-02,0.00533125
3.9024e-02,0.0052125
3.9056e-02,0.00533438
3.9088e-02,0.00534375
3.9120e-02,0.00505313
3.9152e-02,0.00499375
3.9184e-02,0.00492813
3.9216e-02,0.00506875
3.9248e-02,0.00506875
3.9280e-02,0.00527188
3.9312e-02,0.00535
3.9344e-02,0.0055
3.9376e-02,0.0059125
3.9408e-02,0.00570938
3.9440e-02,0.00537813
3.9472e-02,0.00513125
3.9504e-02,0.00485938
3.9536e-02,0.00460625
3.9568e-02,0.00463438
3.9600e-02,0.00475625
3.9632e-02,0.00481563
3.9664e-02,0.00498125
3.9696e-02,0.00535938
3.9728e-02,0.00530938
3.9760e-02,0.00572813
3.9792e-02,0.00548438
3.9824e-02,0.00536563
3.9856e-02,0.0054
3.9888e-02,0.00542813
3.9920e-02,0.00531875
3.9952e-02,0.0054625
3.9984e-02,0.00569688
4.0016e-02,0.00554375
4.0048e-02,0.00566563
4.0080e-02,0.00579375
4.0112e-02,0.00583125
4.0144e-02,0.00588125
4.0176e-02,0.00580938
4.0208e-02,0.00543125
4.0240e-02,0.00509375
4.0272e-02,0.0049375
4.0304e-02,0.005275
4.0336e-02,0.00555
4.0368e-02,0.00547188
4.0400e-02,0.0051625
4.0432e-02,0.005075
4.0464e-02,0.00505938
4.0496e-02,0.00482813
4.0528e-02,0.0049
4.0560e-02,0.00503125
4.0592e-02,0.00483438
4.0624e-02,0.0049
4.0656e-02,0.00479688
4.0688e-02,0.00502188
4.0720e-02,0.00519063
4.0752e-02,0.0054125
4.0784e-02,0.0053625
4.0816e-02,0.00535313
4.0848e-02,0.00519688
4.0880e-02,0.0048625
4.0912e-02,0.00496875
4.0944e-02,0.00497813
4.0976e-02,0.0047875
4.1008e-02,0.0049
4.1040e-02,0.004825
4.1072e-02,0.00487188
4.1104e-02,0.0049375
4.1136e-02,0.0049625
4.1168e-02,0.00505625
4.1200e-02,0.005
4.1232e-02,0.00486563
4.1264e-02,0.00510625
4.1296e-02,0.00526563
4.1328e-02,0.00518125
4.1360e-02,0.0051125
4.1392e-02,0.00515938
4.1424e-02,0.00504375
4.1456e-02,0.004775
4.1488e-02,0.00465313
4.1520e-02,0.0051625
4.1552e-02,0.0055
4.1584e-02,0.00564375
4.1616e-02,0.00579688
4.1648e-02,0.0055375
4.1680e-02,0.00542188
4.1712e-02,0.0054125
4.1744e-02,0.00571875
4.1776e-02,0.00580938
4.1808e-02,0.00615625
4.1840e-02,0.00670313
4.1872e-02,0.0066125
4.1904e-02,0.00629688
4.1936e-02,0.00622813
4.1968e-02,0.00599063
4.2000e-02,0.00608438
4.2032e-02,0.00610625
4.2064e-02,0.006225
4.2096e-02,0.00649688
4.2128e-02,0.00634375
4.2160e-02,0.00648438
4.2192e-02,0.00631563
4.2224e-02,0.0065375
4.2256e-02,0.00699688
4.2288e-02,0.00662813
4.2320e-02,0.00672188
4.2352e-02,0.00679375
4.2384e-02,0.00654688
4.2416e-02,0.00624688
4.2448e-02,0.00605313
4.2480e-02,0.006275
4.2512e-02,0.00623125
4.2544e-02,0.00615313
4.2576e-02,0.00617813
4.2608e-02,0.00623438
4.2640e-02,0.00588125
4.2672e-02,0.00599063
4.2704e-02,0.00585313
4.2736e-02,0.00578125
4.2768e-02,0.00625
4.2800e-02,0.0065125
4.2832e-02,0.00664375
4.2864e-02,0.00687813
4.2896e-02,0.00645938
4.2928e-02,0.00632813
4.2960e-02,0.00641875
4.2992e-02,0.00626563
4.3024e-02,0.00635313
4.3056e-02,0.00628125
4.3088e-02,0.0065375
4.3120e-02,0.006225
4.3152e-02,0.00627813
4.3184e-02,0.00626875
4.3216e-02,0.00664375
4.3248e-02,0.00646875
4.3280e-02,0.00639375
4.3312e-02,0.006325
4.3344e-02,0.0065875
4.3376e-02,0.0070875
4.3408e-02,0.00695
4.3440e-02,0.00729688
4.3472e-02,0.00721563
4.3504e-02,0.006975
4.3536e-02,0.00717188
4.3568e-02,0.00738125
4.3600e-02,0.00758125
4.3632e-02,0.00744688
4.3664e-02,0.00766563
4.3696e-02,0.0079
4.3728e-02,0.00836563
4.3760e-02,0.00847813
4.3792e-02,0.00843125
4.3824e-02,0.00848438
4.3856e-02,0.00951563
4.3888e-02,0.0103406
4.3920e-02,0.0109281
4.3952e-02,0.0111375
4.3984e-02,0.0117875
4.4016e-02,0.0123094
4.4048e-02,0.0136781
4.4080e-02,0.0145188
4.4112e-02,0.0149094
4.4144e-02,0.0152688
4.4176e-02,0.0165781
4.4208e-02,0.0171344
4.4240e-02,0.0178125
4.4272e-02,0.0187344
4.4304e-02,0.019875
4.4336e-02,0.0199219
4.4368e-02,0.0202594
4.4400e-02,0.0216781
4.4432e-02,0.0223938
4.4464e-02,0.0229
4.4496e-02,0.0231656
4.4528e-02,0.024825
4.4560e-02,0.0252844
4.4592e-02,0.0258719
4.4624e-02,0.0271531
4.4656e-02,0.0276156
4.4688e-02,0.0273688
4.4720e-02,0.0279406
4.4752e-02,0.0278813
4.4784e-02,0.028075
4.4816e-02,0.0286813
4.4848e-02,0.0285906
4.4880e-02,0.0278156
4.4912e-02,0.0264313
4.4944e-02,0.0264531
4.4976e-02,0.0261969
4.5008e-02,0.0255594
4.5040e-02,0.024175
4.5072e-02,0.0230875
4.5104e-02,0.0221938
4.5136e-02,0.0215313
4.5168e-02,0.0209125
4.5200e-02,0.0199781
4.5232e-02,0.019625
4.5264e-02,0.0199781
4.5296e-02,0.0198563
4.5328e-02,0.0194688
4.5360e-02,0.0196656
4.5392e-02,0.0194906
4.5424e-02,0.0199531
4.5456e-02,0.0206094
4.5488e-02,0.0213094
4.5520e-02,0.022275
4.5552e-02,0.0242656
4.5584e-02,0.0260469
4.5616e-02,0.0271344
4.5648e-02,0.0286688
4.5680e-02,0.0310938
4.5712e-02,0.0328625
4.5744e-02,0.0341781
4.5776e-02,0.0357406
4.5808e-02,0.0365406
4.5840e-02,0.0381688
4.5872e-02,0.04015
4.5904e-02,0.0420406
4.5936e-02,0.0441938
4.5968e-02,0.0478313
4.6000e-02,0.0523406
4.6032e-02,0.0547875
4.6064e-02,0.0582125
4.6096e-02,0.0615125
4.6128e-02,0.065175
4.6160e-02,0.070125
4.6192e-02,0.0763938
4.6224e-02,0.0794344
4.6256e-02,0.0831687
4.6288e-02,0.0858
4.6320e-02,0.0898969
4.6352e-02,0.0937312
4.6384e-02,0.0979594
4.6416e-02,0.101678
4.6448e-02,0.103575
4.6480e-02,0.103722
4.6512e-02,0.105556
4.6544e-02,0.107528
4.6576e-02,0.107922
4.6608e-02,0.108509
4.6640e-02,0.109687
4.6672e-02,0.109494
4.6704e-02,0.109397
4.6736e-02,0.107953
4.6768e-02,0.105972
4.6800e-02,0.105356
4.6832e-02,0.102594
4.6864e-02,0.0986531
4.6896e-02,0.0942
4.6928e-02,0.0901187
4.6960e-02,0.083675
4.6992e-02,0.0802062
4.7024e-02,0.0758719
4.7056e-02,0.0723156
4.7088e-02,0.0673094
4.7120e-02,0.0636781
4.7152e-02,0.0607719
4.7184e-02,0.0570469
4.7216e-02,0.0538125
4.7248e-02,0.0503906
4.7280e-02,0.0480125
4.7312e-02,0.0464031
4.7344e-02,0.0449625
4.7376e-02,0.0449969
4.7408e-02,0.0457906
4.7440e-02,0.0462469
4.7472e-02,0.0457531
4.7504e-02,0.046875
4.7536e-02,0.0480719
4.7568e-02,0.0494375
4.7600e-02,0.0499375
4.7632e-02,0.050025
4.7664e-02,0.0511906
4.7696e-02,0.053425
4.7728e-02,0.0541844
4.7760e-02,0.0557094
4.7792e-02,0.0569
4.7824e-02,0.0581344
4.7856e-02,0.0615719
4.7888e-02,0.0645375
4.7920e-02,0.0671531
4.7952e-02,0.0700344
4.7984e-02,0.0730063
4.8016e-02,0.07665
4.8048e-02,0.0798
4.8080e-02,0.082875
4.8112e-02,0.0852406
4.8144e-02,0.0888969
4.8176e-02,0.0930156
4.8208e-02,0.0986812
4.8240e-02,0.102609
4.8272e-02,0.104906
4.8304e-02,0.106169
4.8336e-02,0.109122
4.8368e-02,0.112397
4.8400e-02,0.11635
4.8432e-02,0.118778
4.8464e-02,0.119972
4.8496e-02,0.121472
4.8528e-02,0.124766
4.8560e-02,0.126803
4.8592e-02,0.129172
4.8624e-02,0.131041
4.8656e-02,0.133312
4.8688e-02,0.135859
4.8720e-02,0.137119
4.8752e-02,0.136959
4.8784e-02,0.136244
4.8816e-02,0.136522
4.8848e-02,0.136159
4.8880e-02,0.135528
4.8912e-02,0.135297
4.8944e-02,0.133484
4.8976e-02,0.13015
4.9008e-02,0.127187
4.9040e-02,0.123006
4.9072e-02,0.118537
4.9104e-02,0.116441
4.9136e-02,0.109716
4.9168e-02,0.105231
4.9200e-02,0.0992031
4.9232e-02,0.0929219
4.9264e-02,0.0867344
4.9296e-02,0.0794312
4.9328e-02,0.0716094
4.9360e-02,0.0657844
4.9392e-02,0.0596344
4.9424e-02,0.053525
4.9456e-02,0.0484063
4.9488e-02,0.0465625
4.9520e-02,0.0456
4.9552e-02,0.0434719
4.9584e-02,0.041825
4.9616e-02,0.04075
4.9648e-02,0.0399906
4.9680e-02,0.0401594
4.9712e-02,0.0405406
4.9744e-02,0.0408031
4.9776e-02,0.0405281
4.9808e-02,0.0396938
4.9840e-02,0.0388625
4.9872e-02,0.0390688
4.9904e-02,0.0404344
4.9936e-02,0.0412781
4.9968e-02,0.0425406
5.0000e-02,0.0430344
5.0032e-02,0.042425
5.0064e-02,0.0421563
5.0096e-02,0.0430219
5.0128e-02,0.0442375
5.0160e-02,0.0455
5.0192e-02,0.0464281
5.0224e-02,0.0475063
5.0256e-02,0.0490656
5.0288e-02,0.0516406
5.0320e-02,0.0528281
5.0352e-02,0.0545781
5.0384e-02,0.0571094
5.0416e-02,0.0598813
5.0448e-02,0.06165
5.0480e-02,0.067575
5.0512e-02,0.0723406
5.0544e-02,0.0754313
5.0576e-02,0.078875
5.0608e-02,0.0812312
5.0640e-02,0.0840219
5.0672e-02,0.0880812
5.0704e-02,0.0923
5.0736e-02,0.0969469
5.0768e-02,0.100072
5.0800e-02,0.102647
5.0832e-02,0.103369
5.0864e-02,0.104059
5.0896e-02,0.106537
5.0928e-02,0.107569
5.0960e-02,0.106078
5.0992e-02,0.104822
5.1024e-02,0.104056
5.1056e-02,0.103162
5.1088e-02,0.100728
5.1120e-02,0.0988125
5.1152e-02,0.0957375
5.1184e-02,0.0931344
5.1216e-02,0.0903531
5.1248e-02,0.0863812
5.1280e-02,0.0798344
5.1312e-02,0.0727
5.1344e-02,0.066975
5.1376e-02,0.0632344
5.1408e-02,0.0585875
5.1440e-02,0.0533063
5.1472e-02,0.0473031
5.1504e-02,0.0429719
5.1536e-02,0.0382469
5.1568e-02,0.0343219
5.1600e-02,0.0310906
5.1632e-02,0.0284625
5.1664e-02,0.0267188
5.1696e-02,0.0250188
5.1728e-02,0.0236813
5.1760e-02,0.0222719
5.1792e-02,0.0211063
5.1824e-02,0.0208813
5.1856e-02,0.0198313
5.1888e-02,0.01925
5.1920e-02,0.0186656
5.1952e-02,0.0180969
5.1984e-02,0.0177719
5.2016e-02,0.0173813
5.2048e-02,0.0166625
5.2080e-02,0.0158781
5.2112e-02,0.0165656
5.2144e-02,0.0163906
5.2176e-02,0.0160188
5.2208e-02,0.0161719
5.2240e-02,0.0164313
5.2272e-02,0.0159594
5.2304e-02,0.0159531
5.2336e-02,0.016275
5.2368e-02,0.0164625
5.2400e-02,0.0171594
5.2432e-02,0.0173844
5.2464e-02,0.0176031
5.2496e-02,0.0184156
5.2528e-02,0.0193531
5.2560e-02,0.0200969
5.2592e-02,0.0209375
5.2624e-02,0.0216031
5.2656e-02,0.0217219
5.2688e-02,0.0221438
5.2720e-02,0.0226125
5.2752e-02,0.0226469
5.2784e-02,0.0224125
5.2816e-02,0.0223625
5.2848e-02,0.0221219
5.2880e-02,0.0220281
5.2912e-02,0.021775
5.2944e-02,0.021425
5.2976e-02,0.0217438
5.3008e-02,0.0208063
5.3040e-02,0.0204844
5.3072e-02,0.0198469
5.3104e-02,0.01985
5.3136e-02,0.0189688
5.3168e-02,0.018325
5.3200e-02,0.0177875
5.3232e-02,0.0171375
5.3264e-02,0.0166594
5.3296e-02,0.0156719
5.3328e-02,0.0146813
5.3360e-02,0.0135344
5.3392e-02,0.0129406
5.3424e-02,0.0118938
5.3456e-02,0.0103438
5.3488e-02,0.00947813
5.3520e-02,0.00898438
5.3552e-02,0.00853125
5.3584e-02,0.0076875
5.3616e-02,0.00715
5.3648e-02,0.0067125
5.3680e-02,0.00651875
5.3712e-02,0.00645625
5.3744e-02,0.00636563
5.3776e-02,0.00640938
5.3808e-02,0.00625
5.3840e-02,0.00600938
5.3872e-02,0.00625625
5.3904e-02,0.00636563
5.3936e-02,0.0060375
5.3968e-02,0.00583438
5.4000e-02,0.00576563
5.4032e-02,0.00591563
5.4064e-02,0.00564063
5.4096e-02,0.0058125
5.4128e-02,0.00564063
5.4160e-02,0.00575313
5.4192e-02,0.00601875
5.4224e-02,0.00603438
5.4256e-02,0.00559688
5.4288e-02,0.00582188
5.4320e-02,0.00558125
5.4352e-02,0.00581875
5.4384e-02,0.00573125
5.4416e-02,0.00540625
5.4448e-02,0.00556875
5.4480e-02,0.0056875
5.4512e-02,0.00565625
5.4544e-02,0.00590313
5.4576e-02,0.00619375
5.4608e-02,0.00629375
5.4640e-02,0.00632188
5.4672e-02,0.006
5.4704e-02,0.00590313
5.4736e-02,0.00600313
5.4768e-02,0.00590625
5.4800e-02,0.00600313
5.4832e-02,0.00588438
5.4864e-02,0.00603438
5.4896e-02,0.00615625
5.4928e-02,0.00605313
5.4960e-02,0.00601875
5.4992e-02,0.00586875
5.5024e-02,0.0061
5.5056e-02,0.00661875
5.5088e-02,0.00645
5.5120e-02,0.00643438
5.5152e-02,0.00646563
5.5184e-02,0.0062625
5.5216e-02,0.00635625
5.5248e-02,0.0063
5.5280e-02,0.00653125
5.5312e-02,0.00670625
5.5344e-02,0.00627813
5.5376e-02,0.00601875
5.5408e-02,0.0061625
5.5440e-02,0.00619063
5.5472e-02,0.00620938
5.5504e-02,0.00643438
5.5536e-02,0.00614063
5.5568e-02,0.00570625
5.5600e-02,0.0053875
5.5632e-02,0.00540938
5.5664e-02,0.005425
5.5696e-02,0.00555313
5.5728e-02,0.00549375
5.5760e-02,0.005525
5.5792e-02,0.005575
5.5824e-02,0.00532188
5.5856e-02,0.00513438
5.5888e-02,0.0049375
5.5920e-02,0.00485
5.5952e-02,0.0045875
5.5984e-02,0.00444375
5.6016e-02,0.00423438
5.6048e-02,0.00447188
5.6080e-02,0.00452188
5.6112e-02,0.00442813
5.6144e-02,0.00458438
5.6176e-02,0.0051125
5.6208e-02,0.00494375
5.6240e-02,0.00468438
5.6272e-02,0.00472188
5.6304e-02,0.00495
5.6336e-02,0.00505625
5.6368e-02,0.00558125
5.6400e-02,0.00550313
5.6432e-02,0.0054
5.6464e-02,0.0056875
5.6496e-02,0.00550313
5.6528e-02,0.00531875
5.6560e-02,0.0054125
5.6592e-02,0.005225
5.6624e-02,0.0056
5.6656e-02,0.0055375
5.6688e-02,0.00496563
5.6720e-02,0.00481875
5.6752e-02,0.0046875
5.6784e-02,0.00504063
5.6816e-02,0.00540313
5.6848e-02,0.005575
5.6880e-02,0.00561563
5.6912e-02,0.00548438
5.6944e-02,0.00529063
5.6976e-02,0.00544063
5.7008e-02,0.0056
5.7040e-02,0.00543438
5.7072e-02,0.00540938
5.7104e-02,0.00538438
5.7136e-02,0.005375
5.7168e-02,0.00537188
5.7200e-02,0.00559063
5.7232e-02,0.0059625
5.7264e-02,0.00557813
5.7296e-02,0.005275
5.7328e-02,0.0055875
5.7360e-02,0.00599375
5.7392e-02,0.00592188
5.7424e-02,0.00637813
5.7456e-02,0.00640625
5.7488e-02,0.00646875
5.7520e-02,0.00649063
5.7552e-02,0.00612188
5.7584e-02,0.00592813
5.7616e-02,0.00608438
5.7648e-02,0.00647813
5.7680e-02,0.0062875
5.7712e-02,0.00604688
5.7744e-02,0.00558438
5.7776e-02,0.00510313
5.7808e-02,0.00465313
5.7840e-02,0.0046375
5.7872e-02,0.00466563
5.7904e-02,0.00496875
5.7936e-02,0.00509063
5.7968e-02,0.00494063
5.8000e-02,0.00459375
5.8032e-02,0.00482813
5.8064e-02,0.00499688
5.8096e-02,0.00499688
5.8128e-02,0.0046125
5.8160e-02,0.00451563
5.8192e-02,0.0045875
5.8224e-02,0.00466563
5.8256e-02,0.00466563
5.8288e-02,0.00485313
5.8320e-02,0.00495
5.8352e-02,0.00499375
5.8384e-02,0.00485
5.8416e-02,0.00466563
5.8448e-02,0.00468125
5.8480e-02,0.00500313
5.8512e-02,0.00514688
5.8544e-02,0.0053875
5.8576e-02,0.00531875
5.8608e-02,0.00518125
5.8640e-02,0.00515625
5.8672e-02,0.00497813
5.8704e-02,0.00491875
5.8736e-02,0.004825
5.8768e-02,0.00482188
5.8800e-02,0.00482813
5.8832e-02,0.00466563
5.8864e-02,0.00492188
5.8896e-02,0.00506875
5.8928e-02,0.00506563
5.8960e-02,0.00526563
5.8992e-02,0.0049125
5.9024e-02,0.0048375
5.9056e-02,0.00495
5.9088e-02,0.00493438
5.9120e-02,0.0049875
5.9152e-02,0.00513125
5.9184e-02,0.00491875
5.9216e-02,0.00555
5.9248e-02,0.00556563
5.9280e-02,0.00544375
5.9312e-02,0.0056625
5.9344e-02,0.00552188
5.9376e-02,0.00574063
5.9408e-02,0.00572188
5.9440e-02,0.00548438
5.9472e-02,0.005475
5.9504e-02,0.00593125
5.9536e-02,0.005925
5.9568e-02,0.00587813
5.9600e-02,0.00563438
5.9632e-02,0.00545
5.9664e-02,0.00517188
5.9696e-02,0.00505625
5.9728e-02,0.0048875
5.9760e-02,0.00468438
5.9792e-02,0.0052375
5.9824e-02,0.00568438
5.9856e-02,0.00587188
5.9888e-02,0.00610313
5.9920e-02,0.00579688
5.9952e-02,0.00553438
5.9984e-02,0.00546875
6.0016e-02,0.00571875
6.0048e-02,0.005275
6.0080e-02,0.00534063
6.0112e-02,0.00549375
6.0144e-02,0.005425
6.0176e-02,0.00521563
6.0208e-02,0.005325
6.0240e-02,0.00538125
6.0272e-02,0.00550938
6.0304e-02,0.00533125
6.0336e-02,0.00513438
6.0368e-02,0.00500625
6.0400e-02,0.00504375
6.0432e-02,0.0051
6.0464e-02,0.00530313
6.0496e-02,0.00544375
6.0528e-02,0.005525
6.0560e-02,0.00514063
6.0592e-02,0.00509375
6.0624e-02,0.00514063
6.0656e-02,0.00518125
6.0688e-02,0.0049
6.0720e-02,0.0051
6.0752e-02,0.0055625
6.0784e-02,0.00579375
6.0816e-02,0.0057625
6.0848e-02,0.00546563
6.0880e-02,0.00542188
6.0912e-02,0.00550938
6.0944e-02,0.00572813
6.0976e-02,0.00550625
6.1008e-02,0.00530938
6.1040e-02,0.0056375
6.1072e-02,0.00575313
6.1104e-02,0.00555625
6.1136e-02,0.0056125
6.1168e-02,0.005575
6.1200e-02,0.00565938
6.1232e-02,0.00591875
6.1264e-02,0.00611563
6.1296e-02,0.00606875
6.1328e-02,0.00643438
6.1360e-02,0.00656875
6.1392e-02,0.00656875
6.1424e-02,0.00605938
6.1456e-02,0.00608125
6.1488e-02,0.00607188
6.1520e-02,0.00649375
6.1552e-02,0.00665313
6.1584e-02,0.00650938
6.1616e-02,0.00648438
6.1648e-02,0.00655938
6.1680e-02,0.00675625
6.1712e-02,0.00652188
6.1744e-02,0.00630938
6.1776e-02,0.00647813
6.1808e-02,0.00698438
6.1840e-02,0.00735
6.1872e-02,0.00731563
6.1904e-02,0.00712813
6.1936e-02,0.00700625
6.1968e-02,0.00689688
6.2000e-02,0.00649375
6.2032e-02,0.00595938
6.2064e-02,0.00600313
6.2096e-02,0.0061625
6.2128e-02,0.00621563
6.2160e-02,0.00616875
6.2192e-02,0.00600625
6.2224e-02,0.00598438
6.2256e-02,0.0063
6.2288e-02,0.00592188
6.2320e-02,0.00585625
6.2352e-02,0.00575938
6.2384e-02,0.00580625
6.2416e-02,0.006025
6.2448e-02,0.0057375
6.2480e-02,0.0064375
6.2512e-02,0.0068875
6.2544e-02,0.00639688
6.2576e-02,0.00633125
6.2608e-02,0.00625
6.2640e-02,0.00640938
6.2672e-02,0.00631875
6.2704e-02,0.00639063
6.2736e-02,0.00689375
6.2768e-02,0.00723125
6.2800e-02,0.00792813
6.2832e-02,0.0082
6.2864e-02,0.00818125
6.2896e-02,0.00845
6.2928e-02,0.00949063
6.2960e-02,0.0100344
6.2992e-02,0.00958125
6.3024e-02,0.00962813
6.3056e-02,0.00995
6.3088e-02,0.010875
6.3120e-02,0.0118375
6.3152e-02,0.0125375
6.3184e-02,0.0127969
6.3216e-02,0.0131656
6.3248e-02,0.0140406
6.3280e-02,0.0150063
6.3312e-02,0.015675
6.3344e-02,0.0163531
6.3376e-02,0.0169719
6.3408e-02,0.0171813
6.3440e-02,0.0182563
6.3472e-02,0.0190688
6.3504e-02,0.0203531
6.3536e-02,0.0213938
6.3568e-02,0.0231844
6.3600e-02,0.0239375
6.3632e-02,0.023925
6.3664e-02,0.0247969
6.3696e-02,0.0258531
6.3728e-02,0.0254844
6.3760e-02,0.0255156
6.3792e-02,0.0258813
6.3824e-02,0.0268719
6.3856e-02,0.0274906
6.3888e-02,0.027925
6.3920e-02,0.0275625
6.3952e-02,0.0272563
6.3984e-02,0.02695
6.4016e-02,0.0255313
6.4048e-02,0.0249281
6.4080e-02,0.0246531
6.4112e-02,0.0242688
6.4144e-02,0.0234875
6.4176e-02,0.0227594
6.4208e-02,0.0223188
6.4240e-02,0.0208188
6.4272e-02,0.0196938
6.4304e-02,0.0189469
6.4336e-02,0.0188406
6.4368e-02,0.0188781
6.4400e-02,0.0194375
6.4432e-02,0.0194625
6.4464e-02,0.0196531
6.4496e-02,0.02095
6.4528e-02,0.0226906
6.4560e-02,0.024075
6.4592e-02,0.0249469
6.4624e-02,0.0261
6.4656e-02,0.026525
6.4688e-02,0.0275031
6.4720e-02,0.0285531
6.4752e-02,0.0316313
6.4784e-02,0.0353563
6.4816e-02,0.0383844
6.4848e-02,0.0403188
6.4880e-02,0.0423344
6.4912e-02,0.0443969
6.4944e-02,0.0473281
6.4976e-02,0.0500281
6.5008e-02,0.0545781
6.5040e-02,0.0584219
6.5072e-02,0.0608688
6.5104e-02,0.0656063
6.5136e-02,0.0706094
6.5168e-02,0.0744188
6.5200e-02,0.0780094
6.5232e-02,0.0818469
6.5264e-02,0.085425
6.5296e-02,0.0901219
6.5328e-02,0.0935562
6.5360e-02,0.0977562
6.5392e-02,0.100459
6.5424e-02,0.102287
6.5456e-02,0.1038
6.5488e-02,0.105747
6.5520e-02,0.106144
6.5552e-02,0.105797
6.5584e-02,0.106897
6.5616e-02,0.107422
6.5648e-02,0.106666
6.5680e-02,0.105056
6.5712e-02,0.103212
6.5744e-02,0.100631
6.5776e-02,0.0973031
6.5808e-02,0.0932344
6.5840e-02,0.0900375
6.5872e-02,0.0862125
6.5904e-02,0.0811094
6.5936e-02,0.0767438
6.5968e-02,0.0734594
6.6000e-02,0.0697438
6.6032e-02,0.0651
6.6064e-02,0.0607031
6.6096e-02,0.0572469
6.6128e-02,0.0549875
6.6160e-02,0.0519125
6.6192e-02,0.0506938
6.6224e-02,0.0502594
6.6256e-02,0.0491781
6.6288e-02,0.0484469
6.6320e-02,0.0476094
6.6352e-02,0.0466781
6.6384e-02,0.0459969
6.6416e-02,0.0464125
6.6448e-02,0.047025
6.6480e-02,0.0479063
6.6512e-02,0.0490281
6.6544e-02,0.0500781
6.6576e-02,0.0514375
6.6608e-02,0.0529438
6.6640e-02,0.0559
6.6672e-02,0.0580688
6.6704e-02,0.0604313
6.6736e-02,0.0630781
6.6768e-02,0.0667938
6.6800e-02,0.0694875
6.6832e-02,0.0729063
6.6864e-02,0.076975
6.6896e-02,0.0810281
6.6928e-02,0.0840125
6.6960e-02,0.0878687
6.6992e-02,0.0922469
6.7024e-02,0.0982156
6.7056e-02,0.103847
6.7088e-02,0.107797
6.7120e-02,0.109503
6.7152e-02,0.112869
6.7184e-02,0.115919
6.7216e-02,0.117675
6.7248e-02,0.120337
6.7280e-02,0.121637
6.7312e-02,0.124591
6.7344e-02,0.127509
6.7376e-02,0.128859
6.7408e-02,0.130106
6.7440e-02,0.131731
6.7472e-02,0.132544
6.7504e-02,0.131841
6.7536e-02,0.131669
6.7568e-02,0.132847
6.7600e-02,0.132809
6.7632e-02,0.132009
6.7664e-02,0.130034
6.7696e-02,0.128516
6.7728e-02,0.127303
6.7760e-02,0.123875
6.7792e-02,0.120284
6.7824e-02,0.117162
6.7856e-02,0.113694
6.7888e-02,0.109203
6.7920e-02,0.105175
6.7952e-02,0.09985
6.7984e-02,0.0945094
6.8016e-02,0.0883875
6.8048e-02,0.0821
6.8080e-02,0.0738406
6.8112e-02,0.0671125
6.8144e-02,0.0616375
6.8176e-02,0.0560688
6.8208e-02,0.0505563
6.8240e-02,0.0465688
6.8272e-02,0.0440406
6.8304e-02,0.0426969
6.8336e-02,0.0410969
6.8368e-02,0.0399813
6.8400e-02,0.0393031
6.8432e-02,0.03825
6.8464e-02,0.0371688
6.8496e-02,0.0373
6.8528e-02,0.03685
6.8560e-02,0.0365156
6.8592e-02,0.0370813
6.8624e-02,0.0382656
6.8656e-02,0.0398
6.8688e-02,0.0398188
6.8720e-02,0.0410938
6.8752e-02,0.0419063
6.8784e-02,0.0423875
6.8816e-02,0.0432063
6.8848e-02,0.0432313
6.8880e-02,0.0446
6.8912e-02,0.04735
6.8944e-02,0.0505844
6.8976e-02,0.0543156
6.9008e-02,0.0570094
6.9040e-02,0.0596781
6.9072e-02,0.0622594
6.9104e-02,0.0655375
6.9136e-02,0.069675
6.9168e-02,0.0740188
6.9200e-02,0.078025
6.9232e-02,0.080575
6.9264e-02,0.0842219
6.9296e-02,0.0874656
6.9328e-02,0.0907937
6.9360e-02,0.0937031
6.9392e-02,0.0975562
6.9424e-02,0.0978594
6.9456e-02,0.0979062
6.9488e-02,0.0986969
6.9520e-02,0.100953
6.9552e-02,0.101756
6.9584e-02,0.103059
6.9616e-02,0.103772
6.9648e-02,0.103259
6.9680e-02,0.102566
6.9712e-02,0.0997562
6.9744e-02,0.0964719
6.9776e-02,0.0919156
6.9808e-02,0.0882594
6.9840e-02,0.08395
6.9872e-02,0.0790969
6.9904e-02,0.0753688
6.9936e-02,0.0717406
6.9968e-02,0.0669438
7.0000e-02,0.0618875
7.0032e-02,0.05705
7.0064e-02,0.052175
7.0096e-02,0.046775
7.0128e-02,0.0418094
7.0160e-02,0.0364906
7.0192e-02,0.033
7.0224e-02,0.0304531
7.0256e-02,0.0276781
7.0288e-02,0.0262875
7.0320e-02,0.0240125
7.0352e-02,0.0223469
7.0384e-02,0.0212094
7.0416e-02,0.0199969
7.0448e-02,0.018825
7.0480e-02,0.0182469
7.0512e-02,0.0175531
7.0544e-02,0.01765
7.0576e-02,0.0169156
7.0608e-02,0.015975
7.0640e-02,0.0155063
7.0672e-02,0.0160281
7.0704e-02,0.0160188
7.0736e-02,0.0170125
7.0768e-02,0.0170594
7.0800e-02,0.0167563
7.0832e-02,0.0165844
7.0864e-02,0.0170156
7.0896e-02,0.0175969
7.0928e-02,0.0176125
7.0960e-02,0.0179281
7.0992e-02,0.0172531
7.1024e-02,0.0173344
7.1056e-02,0.0185844
7.1088e-02,0.0191219
7.1120e-02,0.0194594
7.1152e-02,0.0199875
7.1184e-02,0.0210063
7.1216e-02,0.0212375
7.1248e-02,0.0213281
7.1280e-02,0.0212969
7.1312e-02,0.0211469
7.1344e-02,0.0213063
7.1376e-02,0.0222219
7.1408e-02,0.0222625
7.1440e-02,0.0215781
7.1472e-02,0.0214031
7.1504e-02,0.0207906
7.1536e-02,0.0209063
7.1568e-02,0.02085
7.1600e-02,0.0201875
7.1632e-02,0.0199
7.1664e-02,0.0193625
7.1696e-02,0.0184063
7.1728e-02,0.0171813
7.1760e-02,0.0161563
7.1792e-02,0.0155406
7.1824e-02,0.0142906
7.1856e-02,0.0130281
7.1888e-02,0.0119719
7.1920e-02,0.0111594
7.1952e-02,0.0100844
7.1984e-02,0.00938438
7.2016e-02,0.00853438
7.2048e-02,0.00803438
7.2080e-02,0.00775938
7.2112e-02,0.00741875
7.2144e-02,0.00691875
7.2176e-02,0.00635625
7.2208e-02,0.00622813
7.2240e-02,0.006475
7.2272e-02,0.0064875
7.2304e-02,0.00632813
7.2336e-02,0.00619375
7.2368e-02,0.006075
7.2400e-02,0.00587813
7.2432e-02,0.005875
7.2464e-02,0.00586875
7.2496e-02,0.0060125
7.2528e-02,0.00597813
7.2560e-02,0.00590313
7.2592e-02,0.00558438
7.2624e-02,0.00545938
7.2656e-02,0.00556875
7.2688e-02,0.00557813
7.2720e-02,0.00564688
7.2752e-02,0.00547813
7.2784e-02,0.00562188
7.2816e-02,0.0056625
7.2848e-02,0.0054625
7.2880e-02,0.0055375
7.2912e-02,0.00556875
7.2944e-02,0.00559063
7.2976e-02,0.00565
7.3008e-02,0.0056
7.3040e-02,0.00580625
7.3072e-02,0.00595938
7.3104e-02,0.00636875
7.3136e-02,0.0064125
7.3168e-02,0.00624688
7.3200e-02,0.00604688
7.3232e-02,0.00670625
7.3264e-02,0.00675313
7.3296e-02,0.00632188
7.3328e-02,0.00637813
7.3360e-02,0.00633438
7.3392e-02,0.00638438
7.3424e-02,0.00668125
7.3456e-02,0.00650625
7.3488e-02,0.00648125
7.3520e-02,0.00632188
7.3552e-02,0.0060875
7.3584e-02,0.00585
7.3616e-02,0.0057375
7.3648e-02,0.00592188
7.3680e-02,0.00615625
7.3712e-02,0.00609375
7.3744e-02,0.00595625
7.3776e-02,0.00568125
7.3808e-02,0.00587813
7.3840e-02,0.005675
7.3872e-02,0.0057625
7.3904e-02,0.00555
7.3936e-02,0.00527813
7.3968e-02,0.00544063
7.4000e-02,0.00546563
7.4032e-02,0.00525625
7.4064e-02,0.00540938
7.4096e-02,0.00510625
7.4128e-02,0.00510938
7.4160e-02,0.00503125
7.4192e-02,0.00472188
7.4224e-02,0.00469688
7.4256e-02,0.00495
7.4288e-02,0.005325
7.4320e-02,0.0052625
7.4352e-02,0.00492813
7.4384e-02,0.00486563
7.4416e-02,0.00479063
7.4448e-02,0.0046
7.4480e-02,0.0045625
7.4512e-02,0.00477188
7.4544e-02,0.00474688
7.4576e-02,0.00486875
7.4608e-02,0.0050125
7.4640e-02,0.00544063
7.4672e-02,0.00554063
7.4704e-02,0.00542813
7.4736e-02,0.005125
7.4768e-02,0.00542188
7.4800e-02,0.00530938
7.4832e-02,0.00504063
7.4864e-02,0.00488125
7.4896e-02,0.00494375
7.4928e-02,0.00535313
7.4960e-02,0.00514375
7.4992e-02,0.00536875
7.5024e-02,0.0056375
7.5056e-02,0.00559688
7.5088e-02,0.00564063
7.5120e-02,0.00587813
7.5152e-02,0.00625313
7.5184e-02,0.00639688
7.5216e-02,0.00607188
7.5248e-02,0.00610313
7.5280e-02,0.00603438
7.5312e-02,0.00621875
7.5344e-02,0.005825
7.5376e-02,0.0057
7.5408e-02,0.00599688
7.5440e-02,0.00642813
7.5472e-02,0.00592813
7.5504e-02,0.006125
7.5536e-02,0.00604688
7.5568e-02,0.005725
7.5600e-02,0.00595938
7.5632e-02,0.00581875
7.5664e-02,0.00585
7.5696e-02,0.00549375
7.5728e-02,0.00540313
7.5760e-02,0.00533125
7.5792e-02,0.00540938
7.5824e-02,0.00531875
7.5856e-02,0.00532813
7.5888e-02,0.00499375
7.5920e-02,0.00475
7.5952e-02,0.004975
7.5984e-02,0.00499688
7.6016e-02,0.00538438
7.6048e-02,0.00520938
7.6080e-02,0.00515313
7.6112e-02,0.00501563
7.6144e-02,0.005025
7.6176e-02,0.00501875
7.6208e-02,0.00570938
7.6240e-02,0.00595313
7.6272e-02,0.00602813
7.6304e-02,0.00565625
7.6336e-02,0.0051375
7.6368e-02,0.00496563
7.6400e-02,0.00486563
7.6432e-02,0.004975
7.6464e-02,0.00502813
7.6496e-02,0.00489375
7.6528e-02,0.00493125
7.6560e-02,0.00550625
7.6592e-02,0.00535625
7.6624e-02,0.00504688
7.6656e-02,0.00470313
7.6688e-02,0.00471563
7.6720e-02,0.00516563
7.6752e-02,0.00550625
7.6784e-02,0.00514688
7.6816e-02,0.00495625
7.6848e-02,0.00495313
7.6880e-02,0.0049875
7.6912e-02,0.00501875
7.6944e-02,0.00487813
7.6976e-02,0.00495625
7.7008e-02,0.00501563
7.7040e-02,0.005
7.7072e-02,0.00503125
7.7104e-02,0.00486875
7.7136e-02,0.00495
7.7168e-02,0.0051125
7.7200e-02,0.00517188
7.7232e-02,0.0052125
7.7264e-02,0.0052125
7.7296e-02,0.00506563
7.7328e-02,0.00491875
7.7360e-02,0.00474375
7.7392e-02,0.00499063
7.7424e-02,0.00519063
7.7456e-02,0.00535313
7.7488e-02,0.00530313
7.7520e-02,0.0050125
7.7552e-02,0.00503438
7.7584e-02,0.00514063
7.7616e-02,0.0050625
7.7648e-02,0.00505938
7.7680e-02,0.0051375
7.7712e-02,0.00531563
7.7744e-02,0.00532813
7.7776e-02,0.00530938
7.7808e-02,0.00540625
7.7840e-02,0.00538438
7.7872e-02,0.00524688
7.7904e-02,0.0053125
7.7936e-02,0.00598125
7.7968e-02,0.006275
7.8000e-02,0.005875
7.8032e-02,0.0055125
7.8064e-02,0.00547188
7.8096e-02,0.00494375
7.8128e-02,0.0049625
7.8160e-02,0.00512813
7.8192e-02,0.005125
7.8224e-02,0.00506563
7.8256e-02,0.00503438
7.8288e-02,0.00480313
7.8320e-02,0.00475313
7.8352e-02,0.0049625
7.8384e-02,0.00499063
7.8416e-02,0.004875
7.8448e-02,0.00471875
7.8480e-02,0.00501875
7.8512e-02,0.0052625
7.8544e-02,0.00495938
7.8576e-02,0.0051625
7.8608e-02,0.00541875
7.8640e-02,0.00562188
7.8672e-02,0.00561875
7.8704e-02,0.00558438
7.8736e-02,0.00538438
7.8768e-02,0.00539375
7.8800e-02,0.00535938
7.8832e-02,0.00528125
7.8864e-02,0.005425
7.8896e-02,0.00566563
7.8928e-02,0.005925
7.8960e-02,0.00589688
7.8992e-02,0.0056125
7.9024e-02,0.00556563
7.9056e-02,0.00566875
7.9088e-02,0.00555625
7.9120e-02,0.00572813
7.9152e-02,0.00544688
7.9184e-02,0.00555313
7.9216e-02,0.00644063
7.9248e-02,0.00681875
7.9280e-02,0.00662188
7.9312e-02,0.00645
7.9344e-02,0.00626563
7.9376e-02,0.00605313
7.9408e-02,0.00625313
7.9440e-02,0.00639063
7.9472e-02,0.00621875
7.9504e-02,0.00614688
7.9536e-02,0.00617188
7.9568e-02,0.0065625
7.9600e-02,0.0069
7.9632e-02,0.00660938
7.9664e-02,0.006525
7.9696e-02,0.00627188
7.9728e-02,0.006175
7.9760e-02,0.00611563
7.9792e-02,0.00615
7.9824e-02,0.0060125
7.9856e-02,0.00591563
7.9888e-02,0.00601875
7.9920e-02,0.00609688
7.9952e-02,0.0062125
7.9984e-02,0.00629063
8.0016e-02,0.00608125
8.0048e-02,0.00592813
8.0080e-02,0.00619688
8.0112e-02,0.00615625
8.0144e-02,0.0054875
8.0176e-02,0.00541875
8.0208e-02,0.00535938
8.0240e-02,0.00547188
8.0272e-02,0.00590938
8.0304e-02,0.00595313
8.0336e-02,0.00609688
8.0368e-02,0.00626563
8.0400e-02,0.00645625
8.0432e-02,0.00651563
8.0464e-02,0.0061875
8.0496e-02,0.00611563
8.0528e-02,0.0061125
8.0560e-02,0.006175
8.0592e-02,0.00641875
8.0624e-02,0.00692813
8.0656e-02,0.00704063
8.0688e-02,0.00709063
8.0720e-02,0.00764375
8.0752e-02,0.00779375
8.0784e-02,0.00785625
8.0816e-02,0.00797813
8.0848e-02,0.0084125
8.0880e-02,0.00915
8.0912e-02,0.00962813
8.0944e-02,0.0101563
8.0976e-02,0.0108531
8.1008e-02,0.0110313
8.1040e-02,0.0115313
8.1072e-02,0.0127594
8.1104e-02,0.0134781
8.1136e-02,0.0146531
8.1168e-02,0.0151438
8.1200e-02,0.0160656
8.1232e-02,0.0168938
8.1264e-02,0.0178781
8.1296e-02,0.0186688
8.1328e-02,0.0196344
8.1360e-02,0.0209563
8.1392e-02,0.0226594
8.1424e-02,0.0227969
8.1456e-02,0.0237969
8.1488e-02,0.0241219
8.1520e-02,0.0243906
8.1552e-02,0.0242719
8.1584e-02,0.0252469
8.1616e-02,0.0264656
8.1648e-02,0.0270375
8.1680e-02,0.0270281
8.1712e-02,0.0261188
8.1744e-02,0.0262063
8.1776e-02,0.0267563
8.1808e-02,0.0281688
8.1840e-02,0.0275
8.1872e-02,0.0270188
8.1904e-02,0.0268594
8.1936e-02,0.0262469
8.1968e-02,0.0261125
8.2000e-02,0.0248531
8.2032e-02,0.0237344
8.2064e-02,0.0215094
8.2096e-02,0.0203625
8.2128e-02,0.0193938
8.2160e-02,0.0186469
8.2192e-02,0.0181063
8.2224e-02,0.0178281
8.2256e-02,0.0180375
8.2288e-02,0.0186938
8.2320e-02,0.0195969
8.2352e-02,0.0200313
8.2384e-02,0.0214313
8.2416e-02,0.023075
8.2448e-02,0.024525
8.2480e-02,0.025775
8.2512e-02,0.0281906
8.2544e-02,0.0299219
8.2576e-02,0.0321438
8.2608e-02,0.0341469
8.2640e-02,0.0369625
8.2672e-02,0.0406344
8.2704e-02,0.0448063
8.2736e-02,0.0500906
8.2768e-02,0.0535969
8.2800e-02,0.0564313
8.2832e-02,0.0580313
8.2864e-02,0.0618531
8.2896e-02,0.0658938
8.2928e-02,0.0704438
8.2960e-02,0.0747656
8.2992e-02,0.079075
8.3024e-02,0.0839719
8.3056e-02,0.0865719
8.3088e-02,0.0893281
8.3120e-02,0.0922125
8.3152e-02,0.0956312
8.3184e-02,0.0980844
8.3216e-02,0.0998437
8.3248e-02,0.103441
8.3280e-02,0.104791
8.3312e-02,0.105941
8.3344e-02,0.106875
8.3376e-02,0.105912
8.3408e-02,0.105847
8.3440e-02,0.104922
8.3472e-02,0.103525
8.3504e-02,0.100891
8.3536e-02,0.0977031
8.3568e-02,0.09465
8.3600e-02,0.0921844
8.3632e-02,0.0876156
8.3664e-02,0.0835469
8.3696e-02,0.0786219
8.3728e-02,0.0747938
8.3760e-02,0.0707594
8.3792e-02,0.0665406
8.3824e-02,0.0627406
8.3856e-02,0.0586156
8.3888e-02,0.0549531
8.3920e-02,0.0538875
8.3952e-02,0.0506031
8.3984e-02,0.0497875
8.4016e-02,0.0487063
8.4048e-02,0.0467531
8.4080e-02,0.047125
8.4112e-02,0.0457
8.4144e-02,0.0458531
8.4176e-02,0.0467125
8.4208e-02,0.0472406
8.4240e-02,0.0478938
8.4272e-02,0.0486563
8.4304e-02,0.0502188
8.4336e-02,0.051625
8.4368e-02,0.0528844
8.4400e-02,0.0549813
8.4432e-02,0.057875
8.4464e-02,0.061375
8.4496e-02,0.0661625
8.4528e-02,0.0684094
8.4560e-02,0.0721
8.4592e-02,0.0765875
8.4624e-02,0.0826937
8.4656e-02,0.0876594
8.4688e-02,0.0921156
8.4720e-02,0.0960437
8.4752e-02,0.100841
8.4784e-02,0.104819
8.4816e-02,0.108281
8.4848e-02,0.112644
8.4880e-02,0.116266
8.4912e-02,0.119481
8.4944e-02,0.122419
8.4976e-02,0.125531
8.5008e-02,0.125416
8.5040e-02,0.125925
8.5072e-02,0.127994
8.5104e-02,0.129303
8.5136e-02,0.130137
8.5168e-02,0.131078
8.5200e-02,0.130566
8.5232e-02,0.130609
8.5264e-02,0.130394
8.5296e-02,0.129053
8.5328e-02,0.128378
8.5360e-02,0.126984
8.5392e-02,0.125319
8.5424e-02,0.124219
8.5456e-02,0.123675
8.5488e-02,0.12275
8.5520e-02,0.118372
8.5552e-02,0.114144
8.5584e-02,0.109103
8.5616e-02,0.103506
8.5648e-02,0.0979031
8.5680e-02,0.0933937
8.5712e-02,0.0871406
8.5744e-02,0.082075
8.5776e-02,0.0755688
8.5808e-02,0.0690656
8.5840e-02,0.0609344
8.5872e-02,0.054875
8.5904e-02,0.0507594
8.5936e-02,0.0479156
8.5968e-02,0.0446031
8.6000e-02,0.0431438
8.6032e-02,0.0408219
8.6064e-02,0.0392469
8.6096e-02,0.0384656
8.6128e-02,0.0378969
8.6160e-02,0.0374469
8.6192e-02,0.0374719
8.6224e-02,0.0381969
8.6256e-02,0.0387156
8.6288e-02,0.0395656
8.6320e-02,0.0406094
8.6352e-02,0.0418375
8.6384e-02,0.0427375
8.6416e-02,0.0436188
8.6448e-02,0.0440969
8.6480e-02,0.0446813
8.6512e-02,0.047425
8.6544e-02,0.0500344
8.6576e-02,0.0517656
8.6608e-02,0.0543031
8.6640e-02,0.0587063
8.6672e-02,0.0622656
8.6704e-02,0.0648906
8.6736e-02,0.0677719
8.6768e-02,0.0712844
8.6800e-02,0.0748813
8.6832e-02,0.0776062
8.6864e-02,0.08055
8.6896e-02,0.0852125
8.6928e-02,0.0884375
8.6960e-02,0.0911875
8.6992e-02,0.09455
8.7024e-02,0.0966219
8.7056e-02,0.0982406
8.7088e-02,0.099825
8.7120e-02,0.100922
8.7152e-02,0.101991
8.7184e-02,0.101031
8.7216e-02,0.0993094
8.7248e-02,0.0974687
8.7280e-02,0.0974312
8.7312e-02,0.0962094
8.7344e-02,0.0944031
8.7376e-02,0.0918656
8.7408e-02,0.0893469
8.7440e-02,0.0865594
8.7472e-02,0.0822906
8.7504e-02,0.0764125
8.7536e-02,0.0720531
8.7568e-02,0.0666313
8.7600e-02,0.060925
8.7632e-02,0.0541219
8.7664e-02,0.0487125
8.7696e-02,0.0441563
8.7728e-02,0.0391781
8.7760e-02,0.0356313
8.7792e-02,0.0323688
8.7824e-02,0.0299281
8.7856e-02,0.0271688
8.7888e-02,0.025475
8.7920e-02,0.0239281
8.7952e-02,0.0222281
8.7984e-02,0.0212094
8.8016e-02,0.0207531
8.8048e-02,0.0197813
8.8080e-02,0.0192656
8.8112e-02,0.0183969
8.8144e-02,0.0179406
8.8176e-02,0.01815
8.8208e-02,0.0180406
8.8240e-02,0.0182406
8.8272e-02,0.0180125
8.8304e-02,0.0177594
8.8336e-02,0.0167406
8.8368e-02,0.0166719
8.8400e-02,0.0176656
8.8432e-02,0.0187063
8.8464e-02,0.0187719
8.8496e-02,0.0187125
8.8528e-02,0.0178313
8.8560e-02,0.018175
8.8592e-02,0.0186438
8.8624e-02,0.0187438
8.8656e-02,0.018875
8.8688e-02,0.0193563
8.8720e-02,0.0213375
8.8752e-02,0.0217438
8.8784e-02,0.0222031
8.8816e-02,0.0224563
8.8848e-02,0.0220656
8.8880e-02,0.0216063
8.8912e-02,0.0212594
8.8944e-02,0.020375
8.8976e-02,0.0198656
8.9008e-02,0.019425
8.9040e-02,0.0192656
8.9072e-02,0.0187031
8.9104e-02,0.0184844
8.9136e-02,0.0176875
8.9168e-02,0.0172281
8.9200e-02,0.0164
8.9232e-02,0.0159719
8.9264e-02,0.0152906
8.9296e-02,0.0150281
8.9328e-02,0.0144281
8.9360e-02,0.0138188
8.9392e-02,0.0130094
8.9424e-02,0.0114594
8.9456e-02,0.0106906
8.9488e-02,0.0101
8.9520e-02,0.00960625
8.9552e-02,0.00886563
8.9584e-02,0.0080875
8.9616e-02,0.00777813
8.9648e-02,0.0077125
8.9680e-02,0.00685625
8.9712e-02,0.00630625
8.9744e-02,0.00595
8.9776e-02,0.00584063
8.9808e-02,0.006025
8.9840e-02,0.00617188
8.9872e-02,0.00589375
8.9904e-02,0.00583125
8.9936e-02,0.00578438
8.9968e-02,0.0056125
9.0000e-02,0.0056125
9.0032e-02,0.00578438
9.0064e-02,0.00615625
9.0096e-02,0.00578438
9.0128e-02,0.00561563
9.0160e-02,0.00542813
9.0192e-02,0.00540938
9.0224e-02,0.00539063
9.0256e-02,0.00520625
9.0288e-02,0.00524063
9.0320e-02,0.00555
9.0352e-02,0.00564688
9.0384e-02,0.00576563
9.0416e-02,0.00577188
9.0448e-02,0.0055375
9.0480e-02,0.0056
9.0512e-02,0.00585
9.0544e-02,0.00569375
9.0576e-02,0.00583438
9.0608e-02,0.00615625
9.0640e-02,0.00598438
9.0672e-02,0.00589688
9.0704e-02,0.00600938
9.0736e-02,0.00585313
9.0768e-02,0.00598125
9.0800e-02,0.00599063
9.0832e-02,0.00613125
9.0864e-02,0.00610938
9.0896e-02,0.0059125
9.0928e-02,0.00583125
9.0960e-02,0.00599375
9.0992e-02,0.0061875
9.1024e-02,0.00611563
9.1056e-02,0.00619375
9.1088e-02,0.006725
9.1120e-02,0.00698125
9.1152e-02,0.00659375
9.1184e-02,0.00615625
9.1216e-02,0.00614688
9.1248e-02,0.00590938
9.1280e-02,0.00600625
9.1312e-02,0.00587813
9.1344e-02,0.00603438
9.1376e-02,0.00583438
9.1408e-02,0.0057125
9.1440e-02,0.00550625
9.1472e-02,0.00545
9.1504e-02,0.00548125
9.1536e-02,0.0049875
9.1568e-02,0.00493125
9.1600e-02,0.0053
9.1632e-02,0.00497188
9.1664e-02,0.00504063
9.1696e-02,0.00518438
9.1728e-02,0.00542813
9.1760e-02,0.00529063
9.1792e-02,0.00514375
9.1824e-02,0.00507813
9.1856e-02,0.00519688
9.1888e-02,0.00532188
9.1920e-02,0.00515313
9.1952e-02,0.004975
9.1984e-02,0.005
9.2016e-02,0.00536875
9.2048e-02,0.005
9.2080e-02,0.00526875
9.2112e-02,0.0052875
9.2144e-02,0.00544688
9.2176e-02,0.0055
9.2208e-02,0.0052375
9.2240e-02,0.00533125
9.2272e-02,0.0052875
9.2304e-02,0.005125
9.2336e-02,0.00505313
9.2368e-02,0.00515
9.2400e-02,0.00519063
9.2432e-02,0.00554063
9.2464e-02,0.005775
9.2496e-02,0.00586875
9.2528e-02,0.00571563
9.2560e-02,0.00578438
9.2592e-02,0.00620313
9.2624e-02,0.00630938
9.2656e-02,0.0059125
9.2688e-02,0.00605
9.2720e-02,0.00697813
9.2752e-02,0.00687188
9.2784e-02,0.00664375
9.2816e-02,0.00635625
9.2848e-02,0.006375
9.2880e-02,0.00620313
9.2912e-02,0.00622188
9.2944e-02,0.00603125
9.2976e-02,0.00575938
9.3008e-02,0.00550625
9.3040e-02,0.0055625
9.3072e-02,0.00585
9.3104e-02,0.0061
9.3136e-02,0.0063125
9.3168e-02,0.006225
9.3200e-02,0.00633438
9.3232e-02,0.00586563
9.3264e-02,0.00545
9.3296e-02,0.00566875
9.3328e-02,0.00551875
9.3360e-02,0.00529063
9.3392e-02,0.00513125
9.3424e-02,0.00519063
9.3456e-02,0.00495625
9.3488e-02,0.00479375
9.3520e-02,0.00465938
9.3552e-02,0.00508438
9.3584e-02,0.00523438
9.3616e-02,0.00509375
9.3648e-02,0.00514688
9.3680e-02,0.00525625
9.3712e-02,0.0050125
9.3744e-02,0.00484063
9.3776e-02,0.00500625
9.3808e-02,0.00513125
9.3840e-02,0.00471563
9.3872e-02,0.00454688
9.3904e-02,0.00450625
9.3936e-02,0.00476563
9.3968e-02,0.004975
9.4000e-02,0.00500313
9.4032e-02,0.00484063
9.4064e-02,0.00472813
9.4096e-02,0.0050375
9.4128e-02,0.00453125
9.4160e-02,0.00456563
9.4192e-02,0.00459688
9.4224e-02,0.00510313
9.4256e-02,0.0054
9.4288e-02,0.00494375
9.4320e-02,0.00464688
9.4352e-02,0.00490938
9.4384e-02,0.00505938
9.4416e-02,0.00540938
9.4448e-02,0.00528438
9.4480e-02,0.00525
9.4512e-02,0.00531875
9.4544e-02,0.00531875
9.4576e-02,0.00540625
9.4608e-02,0.0052
9.4640e-02,0.00508125
9.4672e-02,0.00525625
9.4704e-02,0.00521875
9.4736e-02,0.0054
9.4768e-02,0.0055
9.4800e-02,0.0051375
9.4832e-02,0.0053125
9.4864e-02,0.00547813
9.4896e-02,0.0055375
9.4928e-02,0.00561563
9.4960e-02,0.00520938
9.4992e-02,0.00503125
9.5024e-02,0.00515938
9.5056e-02,0.005
9.5088e-02,0.00540938
9.5120e-02,0.00595938
9.5152e-02,0.00589688
9.5184e-02,0.00575625
9.5216e-02,0.00551563
9.5248e-02,0.00526563
9.5280e-02,0.0053375
9.5312e-02,0.00532813
9.5344e-02,0.00505
9.5376e-02,0.00505625
9.5408e-02,0.00486563
9.5440e-02,0.00467188
9.5472e-02,0.00470938
9.5504e-02,0.00512188
9.5536e-02,0.004975
9.5568e-02,0.00474688
9.5600e-02,0.0048
9.5632e-02,0.0051375
9.5664e-02,0.0057125
9.5696e-02,0.00576563
9.5728e-02,0.00534688
9.5760e-02,0.00539688
9.5792e-02,0.00556563
9.5824e-02,0.00547188
9.5856e-02,0.0053
9.5888e-02,0.004825
9.5920e-02,0.00469688
9.5952e-02,0.004675
9.5984e-02,0.00495625
9.6016e-02,0.00495313
9.6048e-02,0.0049625
9.6080e-02,0.00495938
9.6112e-02,0.0052
9.6144e-02,0.00545
9.6176e-02,0.00530938
9.6208e-02,0.00550938
9.6240e-02,0.00571563
9.6272e-02,0.00590938
9.6304e-02,0.0058875
9.6336e-02,0.00587813
9.6368e-02,0.00565
9.6400e-02,0.00590313
9.6432e-02,0.00581875
9.6464e-02,0.00602188
9.6496e-02,0.00616563
9.6528e-02,0.00591563
9.6560e-02,0.00578125
9.6592e-02,0.00559688
9.6624e-02,0.005475
9.6656e-02,0.00575625
9.6688e-02,0.00602813
9.6720e-02,0.00637813
9.6752e-02,0.00645625
9.6784e-02,0.00657188
9.6816e-02,0.0068625
9.6848e-02,0.00659688
9.6880e-02,0.00648125
9.6912e-02,0.006425
9.6944e-02,0.00663438
9.6976e-02,0.00661875
9.7008e-02,0.0066
9.7040e-02,0.00667188
9.7072e-02,0.00660938
9.7104e-02,0.0064125
9.7136e-02,0.00609063
9.7168e-02,0.00598438
9.7200e-02,0.00570625
9.7232e-02,0.00547813
9.7264e-02,0.00531563
9.7296e-02,0.00564375
9.7328e-02,0.00641563
9.7360e-02,0.00644688
9.7392e-02,0.00622188
9.7424e-02,0.00614375
9.7456e-02,0.00590625
9.7488e-02,0.00585
9.7520e-02,0.00580313
9.7552e-02,0.00585
9.7584e-02,0.0057375
9.7616e-02,0.00587188
9.7648e-02,0.00655938
9.7680e-02,0.00670313
9.7712e-02,0.0066875
9.7744e-02,0.00705938
9.7776e-02,0.00675625
9.7808e-02,0.00649688
9.7840e-02,0.00681875
9.7872e-02,0.00726875
9.7904e-02,0.00685625
9.7936e-02,0.00688438
9.7968e-02,0.00703125
9.8000e-02,0.0073125
9.8032e-02,0.00775938
9.8064e-02,0.00845
9.8096e-02,0.00871563
9.8128e-02,0.00886875
9.8160e-02,0.00914063
9.8192e-02,0.0100031
9.8224e-02,0.0103813
9.8256e-02,0.0109375
9.8288e-02,0.0112781
9.8320e-02,0.0114625
9.8352e-02,0.0119813
9.8384e-02,0.0133781
9.8416e-02,0.0137063
9.8448e-02,0.0145344
9.8480e-02,0.0153969
9.8512e-02,0.0162969
9.8544e-02,0.0171156
9.8576e-02,0.017875
9.8608e-02,0.0191844
9.8640e-02,0.0197938
9.8672e-02,0.0202813
9.8704e-02,0.0203688
9.8736e-02,0.0210156
9.8768e-02,0.0215
9.8800e-02,0.0217219
9.8832e-02,0.0226844
9.8864e-02,0.0237781
9.8896e-02,0.0245063
9.8928e-02,0.0249375
9.8960e-02,0.0259063
9.8992e-02,0.02635
9.9024e-02,0.0265875
9.9056e-02,0.0268625
9.9088e-02,0.0274656
9.9120e-02,0.0275406
9.9152e-02,0.0267094
9.9184e-02,0.0259375
9.9216e-02,0.0261625
9.9248e-02,0.0256625
9.9280e-02,0.025225
9.9312e-02,0.0241938
9.9344e-02,0.0235875
9.9376e-02,0.0235281
9.9408e-02,0.0226688
9.9440e-02,0.0219875
9.9472e-02,0.0207906
9.9504e-02,0.0194063
9.9536e-02,0.0191813
9.9568e-02,0.01945
9.9600e-02,0.0197313
9.9632e-02,0.020575
9.9664e-02,0.0221188
9.9696e-02,0.0235781
9.9728e-02,0.0241781
9.9760e-02,0.0254063
9.9792e-02,0.0271219
9.9824e-02,0.0291781
9.9856e-02,0.0307594
9.9888e-02,0.0341844
9.9920e-02,0.0389656
9.9952e-02,0.0424938
9.9984e-02,0.0472031
1.0002e-01,0.0504656
1.0005e-01,0.0536094
1.0008e-01,0.0559156
1.0011e-01,0.0593438
1.0014e-01,0.0621719
1.0018e-01,0.0664219
1.0021e-01,0.069525
1.0024e-01,0.0744813
1.0027e-01,0.0796219
1.0030e-01,0.0829469
1.0034e-01,0.0852969
1.0037e-01,0.0879562
1.0040e-01,0.090225
1.0043e-01,0.0916125
1.0046e-01,0.0939156
1.0050e-01,0.0956437
1.0053e-01,0.0980156
1.0056e-01,0.1003
1.0059e-01,0.101272
1.0062e-01,0.101334
1.0066e-01,0.0996125
1.0069e-01,0.0990344
1.0072e-01,0.0997281
1.0075e-01,0.0989844
1.0078e-01,0.0970062
1.0082e-01,0.0947531
1.0085e-01,0.0925375
1.0088e-01,0.0908344
1.0091e-01,0.0898187
1.0094e-01,0.0873
1.0098e-01,0.0836406
1.0101e-01,0.0779344
1.0104e-01,0.0743094
1.0107e-01,0.0716656
1.0110e-01,0.0687781
1.0114e-01,0.064625
1.0117e-01,0.0599281
1.0120e-01,0.0563563
1.0123e-01,0.05425
1.0126e-01,0.052975
1.0130e-01,0.051425
1.0133e-01,0.0504906
1.0136e-01,0.0497125
1.0139e-01,0.0483188
1.0142e-01,0.0483813
1.0146e-01,0.04815
1.0149e-01,0.0473438
1.0152e-01,0.0485625
1.0155e-01,0.0501281
1.0158e-01,0.0509906
1.0162e-01,0.0519375
1.0165e-01,0.0539625
1.0168e-01,0.0555531
1.0171e-01,0.0571125
1.0174e-01,0.0589531
1.0178e-01,0.0622375
1.0181e-01,0.0665781
1.0184e-01,0.0706406
1.0187e-01,0.0762688
1.0190e-01,0.0811406
1.0194e-01,0.0854562
1.0197e-01,0.0908844
1.0200e-01,0.0958469
1.0203e-01,0.101647
1.0206e-01,0.107134
1.0210e-01,0.110875
1.0213e-01,0.114047
1.0216e-01,0.116447
1.0219e-01,0.118109
1.0222e-01,0.120681
1.0226e-01,0.121956
1.0229e-01,0.123903
1.0232e-01,0.124278
1.0235e-01,0.125759
1.0238e-01,0.126525
1.0242e-01,0.126803
1.0245e-01,0.127306
1.0248e-01,0.126822
1.0251e-01,0.127372
1.0254e-01,0.127684
1.0258e-01,0.127644
1.0261e-01,0.127944
1.0264e-01,0.127219
1.0267e-01,0.126156
1.0270e-01,0.125381
1.0274e-01,0.124103
1.0277e-01,0.122944
1.0280e-01,0.121062
1.0283e-01,0.1197
1.0286e-01,0.116406
1.0290e-01,0.111559
1.0293e-01,0.106903
1.0296e-01,0.102422
1.0299e-01,0.096275
1.0302e-01,0.0897937
1.0306e-01,0.0830219
1.0309e-01,0.0763625
1.0312e-01,0.0696125
1.0315e-01,0.0640531
1.0318e-01,0.0590031
1.0322e-01,0.0542469
1.0325e-01,0.050775
1.0328e-01,0.0475406
1.0331e-01,0.044075
1.0334e-01,0.0421625
1.0338e-01,0.0401063
1.0341e-01,0.0379063
1.0344e-01,0.0370438
1.0347e-01,0.0361
1.0350e-01,0.0367906
1.0354e-01,0.0371469
1.0357e-01,0.0373563
1.0360e-01,0.0364375
1.0363e-01,0.0385375
1.0366e-01,0.0406781
1.0370e-01,0.04295
1.0373e-01,0.0447094
1.0376e-01,0.047025
1.0379e-01,0.0496781
1.0382e-01,0.0527375
1.0386e-01,0.0552
1.0389e-01,0.0575406
1.0392e-01,0.0600906
1.0395e-01,0.0618
1.0398e-01,0.0634531
1.0402e-01,0.0666531
1.0405e-01,0.0707688
1.0408e-01,0.0736469
1.0411e-01,0.0784187
1.0414e-01,0.0813125
1.0418e-01,0.0834219
1.0421e-01,0.0855312
1.0424e-01,0.0869937
1.0427e-01,0.0882469
1.0430e-01,0.0892406
1.0434e-01,0.0915906
1.0437e-01,0.0918312
1.0440e-01,0.0927156
1.0443e-01,0.0938781
1.0446e-01,0.095375
1.0450e-01,0.0955469
1.0453e-01,0.0961594
1.0456e-01,0.0970781
1.0459e-01,0.0968969
1.0462e-01,0.09495
1.0466e-01,0.0928844
1.0469e-01,0.0912906
1.0472e-01,0.0886
1.0475e-01,0.0850625
1.0478e-01,0.0815969
1.0482e-01,0.0796781
1.0485e-01,0.0795875
1.0488e-01,0.0768781
1.0491e-01,0.0748625
1.0494e-01,0.0732406
1.0498e-01,0.0724125
1.0501e-01,0.0706875
1.0504e-01,0.0691938
1.0507e-01,0.0689156
1.0510e-01,0.069225
1.0514e-01,0.0693281
1.0517e-01,0.0714688
1.0520e-01,0.0747781
1.0523e-01,0.0757875
1.0526e-01,0.0765375
1.0530e-01,0.0798125
1.0533e-01,0.0792062
1.0536e-01,0.07975
1.0539e-01,0.0811031
1.0542e-01,0.0824594
1.0546e-01,0.0846594
1.0549e-01,0.0858344
1.0552e-01,0.0878
1.0555e-01,0.0889312
1.0558e-01,0.09075
1.0562e-01,0.0927469
1.0565e-01,0.0926031
1.0568e-01,0.0932875
1.0571e-01,0.094075
1.0574e-01,0.0936469
1.0578e-01,0.0916187
1.0581e-01,0.0881406
1.0584e-01,0.0848781
1.0587e-01,0.0797406
1.0590e-01,0.0732688
1.0594e-01,0.0672094
1.0597e-01,0.0624719
1.0600e-01,0.0577969
1.0603e-01,0.0535375
1.0606e-01,0.0485281
1.0610e-01,0.0451031
1.0613e-01,0.0438969
1.0616e-01,0.043275
1.0619e-01,0.0417531
1.0622e-01,0.0442813
1.0626e-01,0.0502406
1.0629e-01,0.0589563
1.0632e-01,0.0692531
1.0635e-01,0.082325
1.0638e-01,0.0942812
1.0642e-01,0.103897
1.0645e-01,0.111231
1.0648e-01,0.115716
1.0651e-01,0.119712
1.0654e-01,0.122856
1.0658e-01,0.122481
1.0661e-01,0.119659
1.0664e-01,0.114741
1.0667e-01,0.107494
1.0670e-01,0.0979937
1.0674e-01,0.0886781
1.0677e-01,0.0806969
1.0680e-01,0.0726313
1.0683e-01,0.0658031
1.0686e-01,0.0617469
1.0690e-01,0.0600594
1.0693e-01,0.0624656
1.0696e-01,0.0696438
1.0699e-01,0.0764
1.0702e-01,0.0818719
1.0706e-01,0.0855969
1.0709e-01,0.0890375
1.0712e-01,0.0893969
1.0715e-01,0.0858937
1.0718e-01,0.0788719
1.0722e-01,0.0696438
1.0725e-01,0.0592344
1.0728e-01,0.0500531
1.0731e-01,0.0417625
1.0734e-01,0.0361906
1.0738e-01,0.03195
1.0741e-01,0.0302188
1.0744e-01,0.0290438
1.0747e-01,0.027725
1.0750e-01,0.0268188
1.0754e-01,0.0252906
1.0757e-01,0.0231031
1.0760e-01,0.0197906
1.0763e-01,0.0167469
1.0766e-01,0.0150031
1.0770e-01,0.0132219
1.0773e-01,0.0120594
1.0776e-01,0.0107563
1.0779e-01,0.00939375
1.0782e-01,0.00838438
1.0786e-01,0.0077125
1.0789e-01,0.00715313
1.0792e-01,0.00689688
1.0795e-01,0.00685938
1.0798e-01,0.0069
1.0802e-01,0.00685
1.0805e-01,0.00630938
1.0808e-01,0.00620313
1.0811e-01,0.005975
1.0814e-01,0.00585625
1.0818e-01,0.00583125
1.0821e-01,0.00569688
1.0824e-01,0.0058625
1.0827e-01,0.006
1.0830e-01,0.00572813
1.0834e-01,0.00548125
1.0837e-01,0.00536875
1.0840e-01,0.005325
1.0843e-01,0.00539688
1.0846e-01,0.00501875
1.0850e-01,0.00488125
1.0853e-01,0.004925
1.0856e-01,0.00519063
1.0859e-01,0.00526563
1.0862e-01,0.00556875
1.0866e-01,0.00540313
1.0869e-01,0.0052625
1.0872e-01,0.00537188
1.0875e-01,0.00574063
1.0878e-01,0.00581875
1.0882e-01,0.00567813
1.0885e-01,0.0057125
1.0888e-01,0.00561875
1.0891e-01,0.0056625
1.0894e-01,0.005425
1.0898e-01,0.00529688
1.0901e-01,0.00539375
1.0904e-01,0.00559375
1.0907e-01,0.00547813
1.0910e-01,0.00579063
1.0914e-01,0.00619375
1.0917e-01,0.006075
1.0920e-01,0.00546563
1.0923e-01,0.00535625
1.0926e-01,0.00566563
1.0930e-01,0.00657813
1.0933e-01,0.00831563
1.0936e-01,0.0111031
1.0939e-01,0.0127813
1.0942e-01,0.0151969
1.0946e-01,0.016625
1.0949e-01,0.0171781
1.0952e-01,0.0173656
1.0955e-01,0.0182531
1.0958e-01,0.0201844
1.0962e-01,0.0257594
1.0965e-01,0.0380594
1.0968e-01,0.0526219
1.0971e-01,0.06705
1.0974e-01,0.0727531
1.0978e-01,0.0701969
1.0981e-01,0.0634375
1.0984e-01,0.0581688
1.0987e-01,0.053825
1.0990e-01,0.0534719
1.0994e-01,0.0617594
1.0997e-01,0.0801531
1.1000e-01,0.0983437
1.1003e-01,0.107809
1.1006e-01,0.109797
1.1010e-01,0.106456
1.1013e-01,0.0990562
1.1016e-01,0.0872812
1.1019e-01,0.0782625
1.1022e-01,0.0753563
1.1026e-01,0.0794687
1.1029e-01,0.0851031
1.1032e-01,0.0860281
1.1035e-01,0.0814281
1.1038e-01,0.0708438
1.1042e-01,0.0609969
1.1045e-01,0.0540188
1.1048e-01,0.0465344
1.1051e-01,0.0402344
1.1054e-01,0.034925
1.1058e-01,0.0303469
1.1061e-01,0.0256
1.1064e-01,0.0214156
1.1067e-01,0.018
1.1070e-01,0.0149219
1.1074e-01,0.0125281
1.1077e-01,0.0102688
1.1080e-01,0.00879375
1.1083e-01,0.007675
1.1086e-01,0.00738125
1.1090e-01,0.0068375
1.1093e-01,0.00697813
1.1096e-01,0.0066375
1.1099e-01,0.00606563
1.1102e-01,0.00555
1.1106e-01,0.00598125
1.1109e-01,0.00622188
1.1112e-01,0.00578125
1.1115e-01,0.005475
1.1118e-01,0.00541563
1.1122e-01,0.00538125
1.1125e-01,0.00508438
1.1128e-01,0.00534688
1.1131e-01,0.00524063
1.1134e-01,0.00495313
1.1138e-01,0.00493438
1.1141e-01,0.00497813
1.1144e-01,0.00512188
1.1147e-01,0.00520313
1.1150e-01,0.00505938
1.1154e-01,0.00514688
1.1157e-01,0.00516563
1.1160e-01,0.00540313
1.1163e-01,0.00560938
1.1166e-01,0.00603438
1.1170e-01,0.00605625
1.1173e-01,0.00616563
1.1176e-01,0.006125
1.1179e-01,0.00576875
1.1182e-01,0.00573125
1.1186e-01,0.00627813
1.1189e-01,0.00869375
1.1192e-01,0.0116156
1.1195e-01,0.0142125
1.1198e-01,0.0146656
1.1202e-01,0.0153938
1.1205e-01,0.0169188
1.1208e-01,0.020425
1.1211e-01,0.0303344
1.1214e-01,0.0465469
1.1218e-01,0.0596594
1.1221e-01,0.0621875
1.1224e-01,0.0598625
1.1227e-01,0.0581094
1.1230e-01,0.0558906
1.1234e-01,0.0577031
1.1237e-01,0.0736188
1.1240e-01,0.0938187
1.1243e-01,0.104291
1.1246e-01,0.102834
1.1250e-01,0.0982656
1.1253e-01,0.0904312
1.1256e-01,0.0815562
1.1259e-01,0.0783219
1.1262e-01,0.0829625
1.1266e-01,0.0884875
1.1269e-01,0.0851531
1.1272e-01,0.0772219
1.1275e-01,0.0669938
1.1278e-01,0.0570844
1.1282e-01,0.0480844
1.1285e-01,0.0422313
1.1288e-01,0.0369688
1.1291e-01,0.0308313
1.1294e-01,0.0250531
1.1298e-01,0.0202188
1.1301e-01,0.0163719
1.1304e-01,0.0133
1.1307e-01,0.0107813
1.1310e-01,0.00975938
1.1314e-01,0.00849063
1.1317e-01,0.00723125

