Model,MSO2024
Firmware Version,1.52

Point Format,Y
Horizontal Units,S
Horizontal Scale,0.01
Sample Interval,3.2e-05
Filter Frequency,2e+08
Record Length,3125
Gating,0.0% to 100.0%
Probe Attenuation,1
Vertical Units,V
Vertical Offset,0
Vertical Scale,0.02
Label,
TIME,CH1
1.3200e-02,0.04515
1.3232e-02,0.0472219
1.3264e-02,0.0469125
1.3296e-02,0.0475719
1.3328e-02,0.0483156
1.3360e-02,0.0490156
1.3392e-02,0.0501469
1.3424e-02,0.0509656
1.3456e-02,0.052
1.3488e-02,0.0528813
1.3520e-02,0.0535781
1.3552e-02,0.0561531
1.3584e-02,0.057225
1.3616e-02,0.0577156
1.3648e-02,0.0578344
1.3680e-02,0.0580125
1.3712e-02,0.0580719
1.3744e-02,0.0582469
1.3776e-02,0.0586
1.3808e-02,0.0587688
1.3840e-02,0.0590188
1.3872e-02,0.0579938
1.3904e-02,0.0573469
1.3936e-02,0.0546094
1.3968e-02,0.0531563
1.4000e-02,0.0502813
1.4032e-02,0.0479625
1.4064e-02,0.0451094
1.4096e-02,0.0435156
1.4128e-02,0.0420969
1.4160e-02,0.0399031
1.4192e-02,0.0383281
1.4224e-02,0.0364219
1.4256e-02,0.033875
1.4288e-02,0.0317063
1.4320e-02,0.0292219
1.4352e-02,0.0272094
1.4384e-02,0.0250125
1.4416e-02,0.0229719
1.4448e-02,0.0215625
1.4480e-02,0.0201563
1.4512e-02,0.0195094
1.4544e-02,0.0193625
1.4576e-02,0.0185
1.4608e-02,0.0180313
1.4640e-02,0.0167063
1.4672e-02,0.0156063
1.4704e-02,0.0142875
1.4736e-02,0.0132969
1.4768e-02,0.0135438
1.4800e-02,0.0134531
1.4832e-02,0.0133844
1.4864e-02,0.0132156
1.4896e-02,0.0129156
1.4928e-02,0.012575
1.4960e-02,0.0125563
1.4992e-02,0.0117281
1.5024e-02,0.0114063
1.5056e-02,0.0109656
1.5088e-02,0.0118531
1.5120e-02,0.0123969
1.5152e-02,0.0130063
1.5184e-02,0.0132406
1.5216e-02,0.0132
1.5248e-02,0.01335
1.5280e-02,0.0133156
1.5312e-02,0.0136594
1.5344e-02,0.0134094
1.5376e-02,0.0127344
1.5408e-02,0.012975
1.5440e-02,0.0139781
1.5472e-02,0.0142031
1.5504e-02,0.0147031
1.5536e-02,0.0143094
1.5568e-02,0.0145156
1.5600e-02,0.0156688
1.5632e-02,0.016075
1.5664e-02,0.0161375
1.5696e-02,0.0167594
1.5728e-02,0.0167781
1.5760e-02,0.0168094
1.5792e-02,0.0175125
1.5824e-02,0.0175531
1.5856e-02,0.0175531
1.5888e-02,0.0182219
1.5920e-02,0.0183875
1.5952e-02,0.0178219
1.5984e-02,0.0173781
1.6016e-02,0.0177563
1.6048e-02,0.0185563
1.6080e-02,0.0189031
1.6112e-02,0.0192594
1.6144e-02,0.0202719
1.6176e-02,0.0210781
1.6208e-02,0.0214563
1.6240e-02,0.0214125
1.6272e-02,0.0217844
1.6304e-02,0.0212938
1.6336e-02,0.0216063
1.6368e-02,0.0216781
1.6400e-02,0.0212875
1.6432e-02,0.0206844
1.6464e-02,0.0206875
1.6496e-02,0.0212063
1.6528e-02,0.020275
1.6560e-02,0.0202469
1.6592e-02,0.0210375
1.6624e-02,0.020875
1.6656e-02,0.0196469
1.6688e-02,0.0194031
1.6720e-02,0.0185719
1.6752e-02,0.0178719
1.6784e-02,0.0183656
1.6816e-02,0.0178406
1.6848e-02,0.0175156
1.6880e-02,0.0168813
1.6912e-02,0.0161156
1.6944e-02,0.0154688
1.6976e-02,0.0148938
1.7008e-02,0.0141406
1.7040e-02,0.0137063
1.7072e-02,0.0131656
1.7104e-02,0.0131344
1.7136e-02,0.0122063
1.7168e-02,0.0120156
1.7200e-02,0.0112
1.7232e-02,0.0106844
1.7264e-02,0.0104563
1.7296e-02,0.00981875
1.7328e-02,0.00943438
1.7360e-02,0.00920313
1.7392e-02,0.00932813
1.7424e-02,0.00908438
1.7456e-02,0.008925
1.7488e-02,0.00859063
1.7520e-02,0.00859063
1.7552e-02,0.0085625
1.7584e-02,0.00852813
1.7616e-02,0.00827813
1.7648e-02,0.00833438
1.7680e-02,0.00821563
1.7712e-02,0.00843438
1.7744e-02,0.0089125
1.7776e-02,0.00906875
1.7808e-02,0.00905313
1.7840e-02,0.0091875
1.7872e-02,0.00887813
1.7904e-02,0.00895625
1.7936e-02,0.00875625
1.7968e-02,0.00855625
1.8000e-02,0.00889063
1.8032e-02,0.00911875
1.8064e-02,0.00913125
1.8096e-02,0.00919688
1.8128e-02,0.00992813
1.8160e-02,0.0101188
1.8192e-02,0.010325
1.8224e-02,0.0110281
1.8256e-02,0.0114063
1.8288e-02,0.0116188
1.8320e-02,0.011625
1.8352e-02,0.0120563
1.8384e-02,0.0129375
1.8416e-02,0.0131625
1.8448e-02,0.0134719
1.8480e-02,0.0134813
1.8512e-02,0.0136875
1.8544e-02,0.0143938
1.8576e-02,0.0149938
1.8608e-02,0.0154656
1.8640e-02,0.0156719
1.8672e-02,0.015725
1.8704e-02,0.0159469
1.8736e-02,0.0163469
1.8768e-02,0.01735
1.8800e-02,0.0180344
1.8832e-02,0.0192094
1.8864e-02,0.0199281
1.8896e-02,0.0203375
1.8928e-02,0.0211406
1.8960e-02,0.0217125
1.8992e-02,0.0230156
1.9024e-02,0.0232188
1.9056e-02,0.0241281
1.9088e-02,0.0249719
1.9120e-02,0.0255563
1.9152e-02,0.0259969
1.9184e-02,0.0268938
1.9216e-02,0.0268688
1.9248e-02,0.0267438
1.9280e-02,0.0271844
1.9312e-02,0.0271031
1.9344e-02,0.0264406
1.9376e-02,0.0262688
1.9408e-02,0.026225
1.9440e-02,0.0263813
1.9472e-02,0.0256781
1.9504e-02,0.0247844
1.9536e-02,0.0242906
1.9568e-02,0.0235375
1.9600e-02,0.0233219
1.9632e-02,0.023825
1.9664e-02,0.0231969
1.9696e-02,0.0220875
1.9728e-02,0.0214313
1.9760e-02,0.0212469
1.9792e-02,0.0202625
1.9824e-02,0.0198031
1.9856e-02,0.01895
1.9888e-02,0.0184
1.9920e-02,0.0180313
1.9952e-02,0.0178313
1.9984e-02,0.0173125
2.0016e-02,0.0169469
2.0048e-02,0.0162625
2.0080e-02,0.0161438
2.0112e-02,0.0156875
2.0144e-02,0.0150531
2.0176e-02,0.0149938
2.0208e-02,0.0155625
2.0240e-02,0.0156156
2.0272e-02,0.0158656
2.0304e-02,0.0159938
2.0336e-02,0.0167281
2.0368e-02,0.0179
2.0400e-02,0.0180469
2.0432e-02,0.0186031
2.0464e-02,0.0182813
2.0496e-02,0.0174906
2.0528e-02,0.0174531
2.0560e-02,0.0186469
2.0592e-02,0.0190656
2.0624e-02,0.0192594
2.0656e-02,0.019125
2.0688e-02,0.01935
2.0720e-02,0.0195781
2.0752e-02,0.0196438
2.0784e-02,0.0204438
2.0816e-02,0.0219906
2.0848e-02,0.0231844
2.0880e-02,0.0236813
2.0912e-02,0.0240625
2.0944e-02,0.0253781
2.0976e-02,0.0269469
2.1008e-02,0.0281813
2.1040e-02,0.0284281
2.1072e-02,0.0290469
2.1104e-02,0.0289406
2.1136e-02,0.0299844
2.1168e-02,0.03215
2.1200e-02,0.0340563
2.1232e-02,0.0343781
2.1264e-02,0.0355125
2.1296e-02,0.0362563
2.1328e-02,0.0388375
2.1360e-02,0.0398031
2.1392e-02,0.0411594
2.1424e-02,0.043
2.1456e-02,0.0444094
2.1488e-02,0.0468875
2.1520e-02,0.049075
2.1552e-02,0.0500531
2.1584e-02,0.0512313
2.1616e-02,0.0519344
2.1648e-02,0.0533625
2.1680e-02,0.0537656
2.1712e-02,0.0531719
2.1744e-02,0.0538969
2.1776e-02,0.0533844
2.1808e-02,0.0529375
2.1840e-02,0.0538656
2.1872e-02,0.0535813
2.1904e-02,0.0521063
2.1936e-02,0.0525563
2.1968e-02,0.051575
2.2000e-02,0.0498188
2.2032e-02,0.0477656
2.2064e-02,0.0454906
2.2096e-02,0.0436844
2.2128e-02,0.0423875
2.2160e-02,0.0407094
2.2192e-02,0.0398188
2.2224e-02,0.03795
2.2256e-02,0.0355281
2.2288e-02,0.034625
2.2320e-02,0.0325156
2.2352e-02,0.0304594
2.2384e-02,0.0293031
2.2416e-02,0.0278719
2.2448e-02,0.0267906
2.2480e-02,0.0265594
2.2512e-02,0.0264969
2.2544e-02,0.0260313
2.2576e-02,0.025425
2.2608e-02,0.0262719
2.2640e-02,0.0261969
2.2672e-02,0.0260625
2.2704e-02,0.0260906
2.2736e-02,0.0263313
2.2768e-02,0.0265938
2.2800e-02,0.0265781
2.2832e-02,0.0271531
2.2864e-02,0.0270094
2.2896e-02,0.0263281
2.2928e-02,0.0261719
2.2960e-02,0.0263875
2.2992e-02,0.0268969
2.3024e-02,0.0267688
2.3056e-02,0.0276156
2.3088e-02,0.0284625
2.3120e-02,0.0285781
2.3152e-02,0.0298469
2.3184e-02,0.0314125
2.3216e-02,0.0316844
2.3248e-02,0.0328906
2.3280e-02,0.033575
2.3312e-02,0.0339625
2.3344e-02,0.0353563
2.3376e-02,0.0382938
2.3408e-02,0.0388938
2.3440e-02,0.0405156
2.3472e-02,0.0435781
2.3504e-02,0.045825
2.3536e-02,0.0489031
2.3568e-02,0.0519938
2.3600e-02,0.0546719
2.3632e-02,0.0597063
2.3664e-02,0.0639063
2.3696e-02,0.0658969
2.3728e-02,0.0675969
2.3760e-02,0.0705781
2.3792e-02,0.0737
2.3824e-02,0.0782062
2.3856e-02,0.0809969
2.3888e-02,0.0855156
2.3920e-02,0.0889375
2.3952e-02,0.0915906
2.3984e-02,0.0943594
2.4016e-02,0.097975
2.4048e-02,0.102366
2.4080e-02,0.104716
2.4112e-02,0.105087
2.4144e-02,0.104919
2.4176e-02,0.106716
2.4208e-02,0.106256
2.4240e-02,0.107906
2.4272e-02,0.109228
2.4304e-02,0.109459
2.4336e-02,0.107916
2.4368e-02,0.106656
2.4400e-02,0.105687
2.4432e-02,0.104722
2.4464e-02,0.101403
2.4496e-02,0.0980062
2.4528e-02,0.0948
2.4560e-02,0.0919375
2.4592e-02,0.0872375
2.4624e-02,0.0826937
2.4656e-02,0.0769125
2.4688e-02,0.0722594
2.4720e-02,0.066075
2.4752e-02,0.0588344
2.4784e-02,0.0530781
2.4816e-02,0.0496188
2.4848e-02,0.0457188
2.4880e-02,0.0414688
2.4912e-02,0.0369281
2.4944e-02,0.0332438
2.4976e-02,0.0299875
2.5008e-02,0.0268281
2.5040e-02,0.0250031
2.5072e-02,0.0229656
2.5104e-02,0.0212844
2.5136e-02,0.0197469
2.5168e-02,0.0186875
2.5200e-02,0.0173719
2.5232e-02,0.0151313
2.5264e-02,0.0136875
2.5296e-02,0.0128219
2.5328e-02,0.0123313
2.5360e-02,0.0115844
2.5392e-02,0.0107875
2.5424e-02,0.0103094
2.5456e-02,0.00964688
2.5488e-02,0.00960938
2.5520e-02,0.00928438
2.5552e-02,0.00871563
2.5584e-02,0.00791563
2.5616e-02,0.00774688
2.5648e-02,0.00769375
2.5680e-02,0.0075
2.5712e-02,0.00755
2.5744e-02,0.007375
2.5776e-02,0.00713438
2.5808e-02,0.006875
2.5840e-02,0.00685
2.5872e-02,0.00710313
2.5904e-02,0.00714688
2.5936e-02,0.0073
2.5968e-02,0.0074125
2.6000e-02,0.00751563
2.6032e-02,0.00725625
2.6064e-02,0.00685625
2.6096e-02,0.00630938
2.6128e-02,0.00645625
2.6160e-02,0.00651875
2.6192e-02,0.00719688
2.6224e-02,0.00714375
2.6256e-02,0.00690313
2.6288e-02,0.00672813
2.6320e-02,0.0065875
2.6352e-02,0.00654375
2.6384e-02,0.00637188
2.6416e-02,0.00634063
2.6448e-02,0.00624063
2.6480e-02,0.00613125
2.6512e-02,0.0062
2.6544e-02,0.00629688
2.6576e-02,0.00620938
2.6608e-02,0.00581875
2.6640e-02,0.00558125
2.6672e-02,0.0055875
2.6704e-02,0.005725
2.6736e-02,0.0058625
2.6768e-02,0.00582188
2.6800e-02,0.00580625
2.6832e-02,0.00593438
2.6864e-02,0.0055875
2.6896e-02,0.00567188
2.6928e-02,0.00575313
2.6960e-02,0.00579375
2.6992e-02,0.0059875
2.7024e-02,0.0057
2.7056e-02,0.00545
2.7088e-02,0.00528125
2.7120e-02,0.00534375
2.7152e-02,0.00545313
2.7184e-02,0.00557813
2.7216e-02,0.00544063
2.7248e-02,0.00541875
2.7280e-02,0.00544063
2.7312e-02,0.00559063
2.7344e-02,0.0050375
2.7376e-02,0.00493438
2.7408e-02,0.0051375
2.7440e-02,0.00510313
2.7472e-02,0.00505625
2.7504e-02,0.00515
2.7536e-02,0.005475
2.7568e-02,0.00536563
2.7600e-02,0.00536563
2.7632e-02,0.00560938
2.7664e-02,0.00527813
2.7696e-02,0.00514688
2.7728e-02,0.00488125
2.7760e-02,0.004975
2.7792e-02,0.00482813
2.7824e-02,0.005
2.7856e-02,0.00492813
2.7888e-02,0.00515
2.7920e-02,0.00526563
2.7952e-02,0.00510625
2.7984e-02,0.00530313
2.8016e-02,0.00528125
2.8048e-02,0.00532188
2.8080e-02,0.00508125
2.8112e-02,0.00519688
2.8144e-02,0.00552813
2.8176e-02,0.00533125
2.8208e-02,0.00506563
2.8240e-02,0.00537813
2.8272e-02,0.00548125
2.8304e-02,0.00558438
2.8336e-02,0.00559375
2.8368e-02,0.00571563
2.8400e-02,0.00555938
2.8432e-02,0.0056875
2.8464e-02,0.00562188
2.8496e-02,0.00569688
2.8528e-02,0.00579375
2.8560e-02,0.00550625
2.8592e-02,0.00556875
2.8624e-02,0.00560938
2.8656e-02,0.00553438
2.8688e-02,0.005675
2.8720e-02,0.00576875
2.8752e-02,0.00564063
2.8784e-02,0.00554688
2.8816e-02,0.0053625
2.8848e-02,0.00523438
2.8880e-02,0.0053875
2.8912e-02,0.00565625
2.8944e-02,0.00572188
2.8976e-02,0.00583125
2.9008e-02,0.00583125
2.9040e-02,0.00581875
2.9072e-02,0.0058125
2.9104e-02,0.0057375
2.9136e-02,0.0058375
2.9168e-02,0.00615313
2.9200e-02,0.00624688
2.9232e-02,0.005975
2.9264e-02,0.00611875
2.9296e-02,0.00600625
2.9328e-02,0.00588438
2.9360e-02,0.00589375
2.9392e-02,0.00579063
2.9424e-02,0.00570938
2.9456e-02,0.00577188
2.9488e-02,0.00575
2.9520e-02,0.00535313
2.9552e-02,0.0054625
2.9584e-02,0.00545938
2.9616e-02,0.00542188
2.9648e-02,0.00537188
2.9680e-02,0.00512813
2.9712e-02,0.00504688
2.9744e-02,0.0047875
2.9776e-02,0.00500938
2.9808e-02,0.00508125
2.9840e-02,0.00524063
2.9872e-02,0.00505
2.9904e-02,0.00511875
2.9936e-02,0.0055625
2.9968e-02,0.00582813
3.0000e-02,0.00616875
3.0032e-02,0.0058625
3.0064e-02,0.00545
3.0096e-02,0.00529375
3.0128e-02,0.0050875
3.0160e-02,0.00499375
3.0192e-02,0.00514063
3.0224e-02,0.00526875
3.0256e-02,0.0050875
3.0288e-02,0.005075
3.0320e-02,0.00505938
3.0352e-02,0.00501875
3.0384e-02,0.00512813
3.0416e-02,0.00533125
3.0448e-02,0.005475
3.0480e-02,0.00547813
3.0512e-02,0.00574688
3.0544e-02,0.00615313
3.0576e-02,0.00593438
3.0608e-02,0.00589688
3.0640e-02,0.00577813
3.0672e-02,0.0059125
3.0704e-02,0.006025
3.0736e-02,0.00617813
3.0768e-02,0.00623438
3.0800e-02,0.006225
3.0832e-02,0.0061625
3.0864e-02,0.0062125
3.0896e-02,0.00622813
3.0928e-02,0.00656875
3.0960e-02,0.007225
3.0992e-02,0.00735938
3.1024e-02,0.00691875
3.1056e-02,0.00677188
3.1088e-02,0.00680625
3.1120e-02,0.006475
3.1152e-02,0.006575
3.1184e-02,0.00752188
3.1216e-02,0.00769063
3.1248e-02,0.00777188
3.1280e-02,0.00740625
3.1312e-02,0.00749688
3.1344e-02,0.00790938
3.1376e-02,0.00838438
3.1408e-02,0.00868438
3.1440e-02,0.00815
3.1472e-02,0.00795313
3.1504e-02,0.00748438
3.1536e-02,0.00728125
3.1568e-02,0.007775
3.1600e-02,0.00815938
3.1632e-02,0.008575
3.1664e-02,0.00948438
3.1696e-02,0.0099625
3.1728e-02,0.0101219
3.1760e-02,0.00979688
3.1792e-02,0.0102938
3.1824e-02,0.0106156
3.1856e-02,0.0111625
3.1888e-02,0.0118125
3.1920e-02,0.0128094
3.1952e-02,0.0127344
3.1984e-02,0.0131469
3.2016e-02,0.0140219
3.2048e-02,0.0155063
3.2080e-02,0.0155938
3.2112e-02,0.01595
3.2144e-02,0.0165313
3.2176e-02,0.0172844
3.2208e-02,0.0185563
3.2240e-02,0.0196281
3.2272e-02,0.0197563
3.2304e-02,0.0207719
3.2336e-02,0.0220313
3.2368e-02,0.0227844
3.2400e-02,0.0248406
3.2432e-02,0.0266563
3.2464e-02,0.0285344
3.2496e-02,0.029025
3.2528e-02,0.0294125
3.2560e-02,0.0310656
3.2592e-02,0.031925
3.2624e-02,0.0325656
3.2656e-02,0.0327906
3.2688e-02,0.03345
3.2720e-02,0.0340375
3.2752e-02,0.0345563
3.2784e-02,0.0358156
3.2816e-02,0.0374344
3.2848e-02,0.0386875
3.2880e-02,0.03925
3.2912e-02,0.0389188
3.2944e-02,0.0379031
3.2976e-02,0.0392063
3.3008e-02,0.0408781
3.3040e-02,0.0445031
3.3072e-02,0.0483344
3.3104e-02,0.0500313
3.3136e-02,0.0533219
3.3168e-02,0.0561156
3.3200e-02,0.0598531
3.3232e-02,0.0640438
3.3264e-02,0.0662656
3.3296e-02,0.068225
3.3328e-02,0.0706844
3.3360e-02,0.0741656
3.3392e-02,0.0785219
3.3424e-02,0.0822531
3.3456e-02,0.084875
3.3488e-02,0.0874125
3.3520e-02,0.0925937
3.3552e-02,0.0962687
3.3584e-02,0.0996969
3.3616e-02,0.101041
3.3648e-02,0.101756
3.3680e-02,0.103431
3.3712e-02,0.10425
3.3744e-02,0.106334
3.3776e-02,0.106562
3.3808e-02,0.107337
3.3840e-02,0.107737
3.3872e-02,0.104944
3.3904e-02,0.104669
3.3936e-02,0.103572
3.3968e-02,0.100694
3.4000e-02,0.0984531
3.4032e-02,0.0946187
3.4064e-02,0.0895406
3.4096e-02,0.0857156
3.4128e-02,0.0809469
3.4160e-02,0.0771344
3.4192e-02,0.0729688
3.4224e-02,0.0674375
3.4256e-02,0.0607094
3.4288e-02,0.0539969
3.4320e-02,0.0482563
3.4352e-02,0.042975
3.4384e-02,0.0372875
3.4416e-02,0.0327531
3.4448e-02,0.02945
3.4480e-02,0.0278219
3.4512e-02,0.0255688
3.4544e-02,0.0241688
3.4576e-02,0.0227563
3.4608e-02,0.0208438
3.4640e-02,0.0194313
3.4672e-02,0.0189281
3.4704e-02,0.0193531
3.4736e-02,0.0188469
3.4768e-02,0.0181656
3.4800e-02,0.0181625
3.4832e-02,0.01795
3.4864e-02,0.0180938
3.4896e-02,0.018225
3.4928e-02,0.0193531
3.4960e-02,0.0201625
3.4992e-02,0.0206094
3.5024e-02,0.0216563
3.5056e-02,0.022975
3.5088e-02,0.0227719
3.5120e-02,0.0232406
3.5152e-02,0.0229938
3.5184e-02,0.0236781
3.5216e-02,0.0240938
3.5248e-02,0.0249188
3.5280e-02,0.0253094
3.5312e-02,0.0267063
3.5344e-02,0.028275
3.5376e-02,0.0290094
3.5408e-02,0.0293594
3.5440e-02,0.0307
3.5472e-02,0.0315438
3.5504e-02,0.0331219
3.5536e-02,0.0347438
3.5568e-02,0.0358844
3.5600e-02,0.0362844
3.5632e-02,0.0376375
3.5664e-02,0.0394719
3.5696e-02,0.0414219
3.5728e-02,0.0425781
3.5760e-02,0.0436531
3.5792e-02,0.0465406
3.5824e-02,0.0484156
3.5856e-02,0.0495938
3.5888e-02,0.051925
3.5920e-02,0.0537688
3.5952e-02,0.0559125
3.5984e-02,0.0579844
3.6016e-02,0.0590625
3.6048e-02,0.0591375
3.6080e-02,0.059975
3.6112e-02,0.0607719
3.6144e-02,0.0616938
3.6176e-02,0.0605844
3.6208e-02,0.0613625
3.6240e-02,0.0593156
3.6272e-02,0.0562719
3.6304e-02,0.0539219
3.6336e-02,0.0540969
3.6368e-02,0.0524219
3.6400e-02,0.0482531
3.6432e-02,0.0451313
3.6464e-02,0.0433063
3.6496e-02,0.0406875
3.6528e-02,0.0377719
3.6560e-02,0.0349313
3.6592e-02,0.0330438
3.6624e-02,0.0307031
3.6656e-02,0.0285344
3.6688e-02,0.0259281
3.6720e-02,0.0238063
3.6752e-02,0.0217
3.6784e-02,0.0204219
3.6816e-02,0.0189344
3.6848e-02,0.0174406
3.6880e-02,0.0159313
3.6912e-02,0.0149219
3.6944e-02,0.0140813
3.6976e-02,0.0134844
3.7008e-02,0.0125813
3.7040e-02,0.0122969
3.7072e-02,0.0129656
3.7104e-02,0.0133594
3.7136e-02,0.0131469
3.7168e-02,0.0126969
3.7200e-02,0.0124625
3.7232e-02,0.0119406
3.7264e-02,0.0117469
3.7296e-02,0.0121844
3.7328e-02,0.0125969
3.7360e-02,0.0125469
3.7392e-02,0.013075
3.7424e-02,0.0134188
3.7456e-02,0.0133781
3.7488e-02,0.0142281
3.7520e-02,0.0140438
3.7552e-02,0.0142344
3.7584e-02,0.0146719
3.7616e-02,0.0145938
3.7648e-02,0.0146844
3.7680e-02,0.015175
3.7712e-02,0.0153813
3.7744e-02,0.0160469
3.7776e-02,0.0163469
3.7808e-02,0.0167
3.7840e-02,0.0175188
3.7872e-02,0.0175125
3.7904e-02,0.0173625
3.7936e-02,0.0181406
3.7968e-02,0.0184844
3.8000e-02,0.0191188
3.8032e-02,0.0195594
3.8064e-02,0.0202531
3.8096e-02,0.0199656
3.8128e-02,0.0203781
3.8160e-02,0.0212906
3.8192e-02,0.021825
3.8224e-02,0.0216
3.8256e-02,0.0213656
3.8288e-02,0.0210656
3.8320e-02,0.0211156
3.8352e-02,0.0221344
3.8384e-02,0.0220938
3.8416e-02,0.0224281
3.8448e-02,0.0227219
3.8480e-02,0.0221594
3.8512e-02,0.021375
3.8544e-02,0.0211656
3.8576e-02,0.0197656
3.8608e-02,0.0185656
3.8640e-02,0.0178531
3.8672e-02,0.0176563
3.8704e-02,0.0170969
3.8736e-02,0.0162844
3.8768e-02,0.0156656
3.8800e-02,0.0151781
3.8832e-02,0.0147313
3.8864e-02,0.0141938
3.8896e-02,0.0132563
3.8928e-02,0.0120875
3.8960e-02,0.0114469
3.8992e-02,0.010575
3.9024e-02,0.0100531
3.9056e-02,0.009975
3.9088e-02,0.00949063
3.9120e-02,0.00893125
3.9152e-02,0.00958125
3.9184e-02,0.00910938
3.9216e-02,0.00813438
3.9248e-02,0.00819688
3.9280e-02,0.00820938
3.9312e-02,0.00815313
3.9344e-02,0.00789063
3.9376e-02,0.00775
3.9408e-02,0.00789375
3.9440e-02,0.00759375
3.9472e-02,0.0076625
3.9504e-02,0.00767813
3.9536e-02,0.007975
3.9568e-02,0.0085375
3.9600e-02,0.008975
3.9632e-02,0.00852188
3.9664e-02,0.00844688
3.9696e-02,0.00933125
3.9728e-02,0.00985313
3.9760e-02,0.00999063
3.9792e-02,0.0102688
3.9824e-02,0.0103406
3.9856e-02,0.0105531
3.9888e-02,0.0106125
3.9920e-02,0.011
3.9952e-02,0.0116344
3.9984e-02,0.0115406
4.0016e-02,0.0116344
4.0048e-02,0.01175
4.0080e-02,0.0123
4.0112e-02,0.012525
4.0144e-02,0.0129563
4.0176e-02,0.0129813
4.0208e-02,0.0134094
4.0240e-02,0.0143938
4.0272e-02,0.0157531
4.0304e-02,0.0167781
4.0336e-02,0.0168313
4.0368e-02,0.0176313
4.0400e-02,0.0185969
4.0432e-02,0.0195063
4.0464e-02,0.0198531
4.0496e-02,0.0203844
4.0528e-02,0.02185
4.0560e-02,0.0220906
4.0592e-02,0.0221563
4.0624e-02,0.0230875
4.0656e-02,0.0234219
4.0688e-02,0.0235906
4.0720e-02,0.0251313
4.0752e-02,0.0251688
4.0784e-02,0.0261375
4.0816e-02,0.0256125
4.0848e-02,0.0265344
4.0880e-02,0.0266
4.0912e-02,0.02695
4.0944e-02,0.0262
4.0976e-02,0.0253313
4.1008e-02,0.0250031
4.1040e-02,0.0247063
4.1072e-02,0.0252813
4.1104e-02,0.0245844
4.1136e-02,0.0227063
4.1168e-02,0.0210844
4.1200e-02,0.0199344
4.1232e-02,0.0194625
4.1264e-02,0.0191406
4.1296e-02,0.0190406
4.1328e-02,0.0195281
4.1360e-02,0.0189563
4.1392e-02,0.0174813
4.1424e-02,0.0166906
4.1456e-02,0.0158906
4.1488e-02,0.0152344
4.1520e-02,0.0153813
4.1552e-02,0.0157813
4.1584e-02,0.0156
4.1616e-02,0.0160531
4.1648e-02,0.0162406
4.1680e-02,0.0161281
4.1712e-02,0.0164813
4.1744e-02,0.0163688
4.1776e-02,0.0167344
4.1808e-02,0.016375
4.1840e-02,0.0164125
4.1872e-02,0.0171188
4.1904e-02,0.0176375
4.1936e-02,0.0185531
4.1968e-02,0.0195781
4.2000e-02,0.019675
4.2032e-02,0.0199188
4.2064e-02,0.0210844
4.2096e-02,0.0220438
4.2128e-02,0.0227313
4.2160e-02,0.0235031
4.2192e-02,0.0231
4.2224e-02,0.0231219
4.2256e-02,0.0248219
4.2288e-02,0.0268094
4.2320e-02,0.0278844
4.2352e-02,0.0294563
4.2384e-02,0.0305844
4.2416e-02,0.0313594
4.2448e-02,0.0319188
4.2480e-02,0.0342031
4.2512e-02,0.0356813
4.2544e-02,0.0377906
4.2576e-02,0.0391938
4.2608e-02,0.0413656
4.2640e-02,0.04465
4.2672e-02,0.04615
4.2704e-02,0.0490688
4.2736e-02,0.0503
4.2768e-02,0.0508531
4.2800e-02,0.0514094
4.2832e-02,0.0523719
4.2864e-02,0.0528125
4.2896e-02,0.0553
4.2928e-02,0.0571031
4.2960e-02,0.0573438
4.2992e-02,0.0576031
4.3024e-02,0.0557188
4.3056e-02,0.0533406
4.3088e-02,0.0527969
4.3120e-02,0.0522781
4.3152e-02,0.0518594
4.3184e-02,0.0502063
4.3216e-02,0.0492969
4.3248e-02,0.0471219
4.3280e-02,0.0451969
4.3312e-02,0.0432563
4.3344e-02,0.0411406
4.3376e-02,0.0385406
4.3408e-02,0.0359875
4.3440e-02,0.0335375
4.3472e-02,0.0310656
4.3504e-02,0.0286219
4.3536e-02,0.0269813
4.3568e-02,0.0262375
4.3600e-02,0.0263469
4.3632e-02,0.0257875
4.3664e-02,0.0250438
4.3696e-02,0.0242219
4.3728e-02,0.02295
4.3760e-02,0.0226031
4.3792e-02,0.0221813
4.3824e-02,0.0227469
4.3856e-02,0.0230281
4.3888e-02,0.0232563
4.3920e-02,0.0238313
4.3952e-02,0.0250906
4.3984e-02,0.0256469
4.4016e-02,0.0255031
4.4048e-02,0.0257625
4.4080e-02,0.0262531
4.4112e-02,0.0263906
4.4144e-02,0.0269719
4.4176e-02,0.0273594
4.4208e-02,0.0273406
4.4240e-02,0.0284719
4.4272e-02,0.0296844
4.4304e-02,0.031575
4.4336e-02,0.0334813
4.4368e-02,0.0361625
4.4400e-02,0.0381188
4.4432e-02,0.0393313
4.4464e-02,0.0402344
4.4496e-02,0.0421625
4.4528e-02,0.0454094
4.4560e-02,0.05015
4.4592e-02,0.0549688
4.4624e-02,0.0584781
4.4656e-02,0.0621375
4.4688e-02,0.0654719
4.4720e-02,0.0710031
4.4752e-02,0.0762813
4.4784e-02,0.0791937
4.4816e-02,0.0834469
4.4848e-02,0.0857156
4.4880e-02,0.0893906
4.4912e-02,0.0926687
4.4944e-02,0.095925
4.4976e-02,0.0997812
4.5008e-02,0.103866
4.5040e-02,0.106981
4.5072e-02,0.109122
4.5104e-02,0.109478
4.5136e-02,0.110031
4.5168e-02,0.110197
4.5200e-02,0.110181
4.5232e-02,0.110219
4.5264e-02,0.108056
4.5296e-02,0.107278
4.5328e-02,0.106122
4.5360e-02,0.104459
4.5392e-02,0.101556
4.5424e-02,0.0984031
4.5456e-02,0.0950875
4.5488e-02,0.0916187
4.5520e-02,0.0867625
4.5552e-02,0.0809375
4.5584e-02,0.0730844
4.5616e-02,0.0672031
4.5648e-02,0.0616688
4.5680e-02,0.0559938
4.5712e-02,0.0502406
4.5744e-02,0.0447406
4.5776e-02,0.0394688
4.5808e-02,0.0346125
4.5840e-02,0.0302625
4.5872e-02,0.0267531
4.5904e-02,0.0243719
4.5936e-02,0.0217156
4.5968e-02,0.0199781
4.6000e-02,0.0183594
4.6032e-02,0.0161875
4.6064e-02,0.0147906
4.6096e-02,0.0138344
4.6128e-02,0.012775
4.6160e-02,0.0120219
4.6192e-02,0.0114688
4.6224e-02,0.0108625
4.6256e-02,0.0101813
4.6288e-02,0.01
4.6320e-02,0.00938125
4.6352e-02,0.0087625
4.6384e-02,0.00837188
4.6416e-02,0.00801563
4.6448e-02,0.00800938
4.6480e-02,0.0075
4.6512e-02,0.00744688
4.6544e-02,0.00729688
4.6576e-02,0.007
4.6608e-02,0.00694063
4.6640e-02,0.00667188
4.6672e-02,0.00649688
4.6704e-02,0.00652813
4.6736e-02,0.00663125
4.6768e-02,0.00669375
4.6800e-02,0.00653125
4.6832e-02,0.00676875
4.6864e-02,0.00676563
4.6896e-02,0.00678125
4.6928e-02,0.00655625
4.6960e-02,0.00675
4.6992e-02,0.00644688
4.7024e-02,0.00644063
4.7056e-02,0.00604063
4.7088e-02,0.00579375
4.7120e-02,0.00612813
4.7152e-02,0.00644063
4.7184e-02,0.00619063
4.7216e-02,0.00595313
4.7248e-02,0.00570938
4.7280e-02,0.0055125
4.7312e-02,0.00556563
4.7344e-02,0.005475
4.7376e-02,0.0056625
4.7408e-02,0.00576563
4.7440e-02,0.00588438
4.7472e-02,0.0058125
4.7504e-02,0.00570625
4.7536e-02,0.00576875
4.7568e-02,0.00575313
4.7600e-02,0.00581875
4.7632e-02,0.00558125
4.7664e-02,0.00533438
4.7696e-02,0.00548125
4.7728e-02,0.00548438
4.7760e-02,0.005175
4.7792e-02,0.00542813
4.7824e-02,0.00551563
4.7856e-02,0.00558438
4.7888e-02,0.00538125
4.7920e-02,0.00538438
4.7952e-02,0.00508438
4.7984e-02,0.00516875
4.8016e-02,0.00520625
4.8048e-02,0.00523438
4.8080e-02,0.00500625
4.8112e-02,0.00499063
4.8144e-02,0.0050125
4.8176e-02,0.00534375
4.8208e-02,0.00529375
4.8240e-02,0.00535313
4.8272e-02,0.00557813
4.8304e-02,0.00565625
4.8336e-02,0.00555
4.8368e-02,0.00529375
4.8400e-02,0.00500313
4.8432e-02,0.00490938
4.8464e-02,0.004675
4.8496e-02,0.00475
4.8528e-02,0.004825
4.8560e-02,0.0048875
4.8592e-02,0.0054875
4.8624e-02,0.00557813
4.8656e-02,0.00589375
4.8688e-02,0.00577188
4.8720e-02,0.00537188
4.8752e-02,0.00490938
4.8784e-02,0.00485
4.8816e-02,0.00519688
4.8848e-02,0.00529688
4.8880e-02,0.005225
4.8912e-02,0.00525313
4.8944e-02,0.00529063
4.8976e-02,0.00540313
4.9008e-02,0.0052125
4.9040e-02,0.00494688
4.9072e-02,0.00499688
4.9104e-02,0.00515625
4.9136e-02,0.00552188
4.9168e-02,0.0055625
4.9200e-02,0.00557813
4.9232e-02,0.0057125
4.9264e-02,0.00603438
4.9296e-02,0.00615
4.9328e-02,0.00647813
4.9360e-02,0.00630625
4.9392e-02,0.00586563
4.9424e-02,0.00580313
4.9456e-02,0.00599375
4.9488e-02,0.005975
4.9520e-02,0.00581563
4.9552e-02,0.00541563
4.9584e-02,0.00538438
4.9616e-02,0.00518438
4.9648e-02,0.00540938
4.9680e-02,0.0053625
4.9712e-02,0.00529375
4.9744e-02,0.00528125
4.9776e-02,0.00539375
4.9808e-02,0.00522813
4.9840e-02,0.005375
4.9872e-02,0.00510313
4.9904e-02,0.00530625
4.9936e-02,0.0056
4.9968e-02,0.00559688
5.0000e-02,0.00548125
5.0032e-02,0.00549063
5.0064e-02,0.00524375
5.0096e-02,0.00503438
5.0128e-02,0.0052625
5.0160e-02,0.00566875
5.0192e-02,0.00606563
5.0224e-02,0.00615938
5.0256e-02,0.0059625
5.0288e-02,0.005775
5.0320e-02,0.0059125
5.0352e-02,0.00589063
5.0384e-02,0.00567813
5.0416e-02,0.0057125
5.0448e-02,0.0059125
5.0480e-02,0.00595313
5.0512e-02,0.00588438
5.0544e-02,0.005825
5.0576e-02,0.00586875
5.0608e-02,0.00569375
5.0640e-02,0.00577188
5.0672e-02,0.0059
5.0704e-02,0.005925
5.0736e-02,0.0059875
5.0768e-02,0.00586875
5.0800e-02,0.00586563
5.0832e-02,0.00570313
5.0864e-02,0.00598125
5.0896e-02,0.00626875
5.0928e-02,0.00595625
5.0960e-02,0.0057375
5.0992e-02,0.005775
5.1024e-02,0.00608438
5.1056e-02,0.00649688
5.1088e-02,0.0071125
5.1120e-02,0.00717813
5.1152e-02,0.00700938
5.1184e-02,0.0069125
5.1216e-02,0.00680313
5.1248e-02,0.00653125
5.1280e-02,0.00654688
5.1312e-02,0.00651875
5.1344e-02,0.00676563
5.1376e-02,0.00692188
5.1408e-02,0.00744688
5.1440e-02,0.00739688
5.1472e-02,0.00726875
5.1504e-02,0.00710625
5.1536e-02,0.00704063
5.1568e-02,0.0070375
5.1600e-02,0.00719688
5.1632e-02,0.00736563
5.1664e-02,0.00747813
5.1696e-02,0.007575
5.1728e-02,0.00778125
5.1760e-02,0.00794688
5.1792e-02,0.00805938
5.1824e-02,0.00835625
5.1856e-02,0.00876563
5.1888e-02,0.00905
5.1920e-02,0.00914688
5.1952e-02,0.00940625
5.1984e-02,0.00957188
5.2016e-02,0.0102938
5.2048e-02,0.0112219
5.2080e-02,0.0112656
5.2112e-02,0.0117938
5.2144e-02,0.0121594
5.2176e-02,0.0130406
5.2208e-02,0.0138469
5.2240e-02,0.0143125
5.2272e-02,0.0154688
5.2304e-02,0.0167656
5.2336e-02,0.0182531
5.2368e-02,0.0184719
5.2400e-02,0.0186844
5.2432e-02,0.0199406
5.2464e-02,0.0215281
5.2496e-02,0.0225563
5.2528e-02,0.023275
5.2560e-02,0.0237656
5.2592e-02,0.0248281
5.2624e-02,0.0265031
5.2656e-02,0.028075
5.2688e-02,0.0300031
5.2720e-02,0.0305063
5.2752e-02,0.0312438
5.2784e-02,0.0323313
5.2816e-02,0.0325063
5.2848e-02,0.033375
5.2880e-02,0.0352156
5.2912e-02,0.0367875
5.2944e-02,0.0381875
5.2976e-02,0.0383688
5.3008e-02,0.0406219
5.3040e-02,0.0423656
5.3072e-02,0.0438781
5.3104e-02,0.0449781
5.3136e-02,0.0472938
5.3168e-02,0.050125
5.3200e-02,0.053875
5.3232e-02,0.0572438
5.3264e-02,0.06105
5.3296e-02,0.0654031
5.3328e-02,0.068025
5.3360e-02,0.0729844
5.3392e-02,0.0778219
5.3424e-02,0.0816156
5.3456e-02,0.0860125
5.3488e-02,0.0893031
5.3520e-02,0.0925312
5.3552e-02,0.0966187
5.3584e-02,0.100291
5.3616e-02,0.10205
5.3648e-02,0.102094
5.3680e-02,0.102569
5.3712e-02,0.104816
5.3744e-02,0.105828
5.3776e-02,0.105869
5.3808e-02,0.105484
5.3840e-02,0.104175
5.3872e-02,0.103787
5.3904e-02,0.103084
5.3936e-02,0.100322
5.3968e-02,0.0975062
5.4000e-02,0.0936406
5.4032e-02,0.0901062
5.4064e-02,0.0871
5.4096e-02,0.0819594
5.4128e-02,0.0759938
5.4160e-02,0.0690813
5.4192e-02,0.0617656
5.4224e-02,0.0567063
5.4256e-02,0.0506313
5.4288e-02,0.0459219
5.4320e-02,0.0409219
5.4352e-02,0.0367719
5.4384e-02,0.0339656
5.4416e-02,0.030775
5.4448e-02,0.0272563
5.4480e-02,0.0246969
5.4512e-02,0.0223594
5.4544e-02,0.0204656
5.4576e-02,0.0195375
5.4608e-02,0.0194969
5.4640e-02,0.0185188
5.4672e-02,0.0181625
5.4704e-02,0.0185969
5.4736e-02,0.0186313
5.4768e-02,0.0197063
5.4800e-02,0.0197438
5.4832e-02,0.0198781
5.4864e-02,0.0202406
5.4896e-02,0.0204656
5.4928e-02,0.0202469
5.4960e-02,0.0200656
5.4992e-02,0.0207406
5.5024e-02,0.0218625
5.5056e-02,0.0225
5.5088e-02,0.0238594
5.5120e-02,0.0247313
5.5152e-02,0.0256563
5.5184e-02,0.0269969
5.5216e-02,0.0289125
5.5248e-02,0.0310688
5.5280e-02,0.0326
5.5312e-02,0.0333438
5.5344e-02,0.03525
5.5376e-02,0.0362063
5.5408e-02,0.0371969
5.5440e-02,0.03865
5.5472e-02,0.0414469
5.5504e-02,0.0434844
5.5536e-02,0.0452031
5.5568e-02,0.0466969
5.5600e-02,0.0489969
5.5632e-02,0.0504969
5.5664e-02,0.052025
5.5696e-02,0.053725
5.5728e-02,0.0552219
5.5760e-02,0.0554281
5.5792e-02,0.0557781
5.5824e-02,0.0559688
5.5856e-02,0.0579219
5.5888e-02,0.0593875
5.5920e-02,0.0594406
5.5952e-02,0.059025
5.5984e-02,0.057975
5.6016e-02,0.0575938
5.6048e-02,0.056525
5.6080e-02,0.0541906
5.6112e-02,0.0516375
5.6144e-02,0.0497219
5.6176e-02,0.0471125
5.6208e-02,0.0437688
5.6240e-02,0.0406594
5.6272e-02,0.0375844
5.6304e-02,0.0349875
5.6336e-02,0.033225
5.6368e-02,0.0310563
5.6400e-02,0.028275
5.6432e-02,0.0249281
5.6464e-02,0.0220531
5.6496e-02,0.0201969
5.6528e-02,0.018875
5.6560e-02,0.017525
5.6592e-02,0.0163531
5.6624e-02,0.0158156
5.6656e-02,0.0154406
5.6688e-02,0.0148
5.6720e-02,0.0132844
5.6752e-02,0.0125969
5.6784e-02,0.0124563
5.6816e-02,0.0120656
5.6848e-02,0.0123469
5.6880e-02,0.0125875
5.6912e-02,0.0124375
5.6944e-02,0.0125938
5.6976e-02,0.0125125
5.7008e-02,0.0125344
5.7040e-02,0.0126625
5.7072e-02,0.0125156
5.7104e-02,0.0134313
5.7136e-02,0.0133594
5.7168e-02,0.0131906
5.7200e-02,0.0140781
5.7232e-02,0.0148688
5.7264e-02,0.0148125
5.7296e-02,0.0147094
5.7328e-02,0.0152844
5.7360e-02,0.0159656
5.7392e-02,0.0159938
5.7424e-02,0.0162031
5.7456e-02,0.016175
5.7488e-02,0.0169563
5.7520e-02,0.0169938
5.7552e-02,0.0177125
5.7584e-02,0.0181
5.7616e-02,0.0186313
5.7648e-02,0.0191125
5.7680e-02,0.0199969
5.7712e-02,0.0200969
5.7744e-02,0.0199813
5.7776e-02,0.0206063
5.7808e-02,0.0215438
5.7840e-02,0.0216
5.7872e-02,0.0215094
5.7904e-02,0.0219125
5.7936e-02,0.0228
5.7968e-02,0.0227781
5.8000e-02,0.0221375
5.8032e-02,0.0212625
5.8064e-02,0.02105
5.8096e-02,0.0201688
5.8128e-02,0.0197594
5.8160e-02,0.019575
5.8192e-02,0.0190563
5.8224e-02,0.0181063
5.8256e-02,0.0174375
5.8288e-02,0.0170719
5.8320e-02,0.0162188
5.8352e-02,0.0151313
5.8384e-02,0.0148094
5.8416e-02,0.0141344
5.8448e-02,0.0134625
5.8480e-02,0.0124906
5.8512e-02,0.0115531
5.8544e-02,0.0110781
5.8576e-02,0.0108938
5.8608e-02,0.0103656
5.8640e-02,0.0093875
5.8672e-02,0.00825
5.8704e-02,0.00835625
5.8736e-02,0.00820938
5.8768e-02,0.00796875
5.8800e-02,0.00801563
5.8832e-02,0.00824688
5.8864e-02,0.00789063
5.8896e-02,0.00801875
5.8928e-02,0.00817813
5.8960e-02,0.00799688
5.8992e-02,0.0083625
5.9024e-02,0.00858438
5.9056e-02,0.00861563
5.9088e-02,0.008275
5.9120e-02,0.00836875
5.9152e-02,0.00895625
5.9184e-02,0.00918125
5.9216e-02,0.00885
5.9248e-02,0.00913438
5.9280e-02,0.00955938
5.9312e-02,0.0100625
5.9344e-02,0.0102969
5.9376e-02,0.010275
5.9408e-02,0.0109125
5.9440e-02,0.0109844
5.9472e-02,0.0118781
5.9504e-02,0.0126344
5.9536e-02,0.0133563
5.9568e-02,0.0142938
5.9600e-02,0.0142406
5.9632e-02,0.0139813
5.9664e-02,0.0149375
5.9696e-02,0.0150281
5.9728e-02,0.0165313
5.9760e-02,0.0173031
5.9792e-02,0.0177813
5.9824e-02,0.0182844
5.9856e-02,0.0197906
5.9888e-02,0.0205969
5.9920e-02,0.0214594
5.9952e-02,0.0223844
5.9984e-02,0.0229688
6.0016e-02,0.0237125
6.0048e-02,0.0247031
6.0080e-02,0.025375
6.0112e-02,0.0262375
6.0144e-02,0.0275
6.0176e-02,0.0280438
6.0208e-02,0.027975
6.0240e-02,0.0277781
6.0272e-02,0.0271938
6.0304e-02,0.0268
6.0336e-02,0.0263906
6.0368e-02,0.0255094
6.0400e-02,0.0254625
6.0432e-02,0.0253531
6.0464e-02,0.0245125
6.0496e-02,0.0230688
6.0528e-02,0.0218
6.0560e-02,0.0211344
6.0592e-02,0.0205719
6.0624e-02,0.0202781
6.0656e-02,0.0191375
6.0688e-02,0.018425
6.0720e-02,0.0174219
6.0752e-02,0.0166281
6.0784e-02,0.0160969
6.0816e-02,0.01625
6.0848e-02,0.0160594
6.0880e-02,0.0159156
6.0912e-02,0.01525
6.0944e-02,0.0148469
6.0976e-02,0.0148188
6.1008e-02,0.015275
6.1040e-02,0.0152469
6.1072e-02,0.0151906
6.1104e-02,0.0155344
6.1136e-02,0.0159469
6.1168e-02,0.0164688
6.1200e-02,0.017275
6.1232e-02,0.0167188
6.1264e-02,0.0173438
6.1296e-02,0.0179531
6.1328e-02,0.018775
6.1360e-02,0.0195344
6.1392e-02,0.0203594
6.1424e-02,0.0215156
6.1456e-02,0.0231063
6.1488e-02,0.0238719
6.1520e-02,0.0248344
6.1552e-02,0.0261813
6.1584e-02,0.0273688
6.1616e-02,0.0282406
6.1648e-02,0.0289281
6.1680e-02,0.0296906
6.1712e-02,0.0312219
6.1744e-02,0.0336375
6.1776e-02,0.0349219
6.1808e-02,0.0376875
6.1840e-02,0.0401625
6.1872e-02,0.0419281
6.1904e-02,0.04425
6.1936e-02,0.0455344
6.1968e-02,0.0478781
6.2000e-02,0.0501531
6.2032e-02,0.0512656
6.2064e-02,0.0523625
6.2096e-02,0.0532844
6.2128e-02,0.0533719
6.2160e-02,0.05395
6.2192e-02,0.0543219
6.2224e-02,0.0545156
6.2256e-02,0.0539344
6.2288e-02,0.0533406
6.2320e-02,0.0530281
6.2352e-02,0.0522469
6.2384e-02,0.0491813
6.2416e-02,0.047
6.2448e-02,0.0457188
6.2480e-02,0.0446844
6.2512e-02,0.0420969
6.2544e-02,0.0400344
6.2576e-02,0.0374
6.2608e-02,0.0351469
6.2640e-02,0.0331875
6.2672e-02,0.0303469
6.2704e-02,0.0288031
6.2736e-02,0.0271125
6.2768e-02,0.0260063
6.2800e-02,0.0247563
6.2832e-02,0.0234188
6.2864e-02,0.0225656
6.2896e-02,0.0217781
6.2928e-02,0.0217531
6.2960e-02,0.0221219
6.2992e-02,0.0224313
6.3024e-02,0.0230344
6.3056e-02,0.0230844
6.3088e-02,0.0226094
6.3120e-02,0.0227031
6.3152e-02,0.0228594
6.3184e-02,0.0231656
6.3216e-02,0.0242406
6.3248e-02,0.0242625
6.3280e-02,0.0253656
6.3312e-02,0.0267594
6.3344e-02,0.0282656
6.3376e-02,0.0294375
6.3408e-02,0.0304406
6.3440e-02,0.0320813
6.3472e-02,0.0339156
6.3504e-02,0.0367375
6.3536e-02,0.0397125
6.3568e-02,0.0428
6.3600e-02,0.0468406
6.3632e-02,0.0490438
6.3664e-02,0.0516063
6.3696e-02,0.0569438
6.3728e-02,0.0619063
6.3760e-02,0.0656375
6.3792e-02,0.0678156
6.3824e-02,0.0712688
6.3856e-02,0.0768187
6.3888e-02,0.0824062
6.3920e-02,0.0866594
6.3952e-02,0.0898312
6.3984e-02,0.0930312
6.4016e-02,0.0978344
6.4048e-02,0.101537
6.4080e-02,0.104228
6.4112e-02,0.10595
6.4144e-02,0.108119
6.4176e-02,0.108906
6.4208e-02,0.108925
6.4240e-02,0.108275
6.4272e-02,0.107059
6.4304e-02,0.107831
6.4336e-02,0.106956
6.4368e-02,0.105566
6.4400e-02,0.102706
6.4432e-02,0.0992344
6.4464e-02,0.0960375
6.4496e-02,0.0916031
6.4528e-02,0.0862375
6.4560e-02,0.0801687
6.4592e-02,0.0739781
6.4624e-02,0.0679281
6.4656e-02,0.0612063
6.4688e-02,0.0542406
6.4720e-02,0.0483219
6.4752e-02,0.04265
6.4784e-02,0.038275
6.4816e-02,0.0345438
6.4848e-02,0.0308906
6.4880e-02,0.0270844
6.4912e-02,0.0247313
6.4944e-02,0.0222594
6.4976e-02,0.0199375
6.5008e-02,0.0178594
6.5040e-02,0.0164063
6.5072e-02,0.015325
6.5104e-02,0.0140344
6.5136e-02,0.0127031
6.5168e-02,0.0120938
6.5200e-02,0.0116625
6.5232e-02,0.010575
6.5264e-02,0.00981875
6.5296e-02,0.00925313
6.5328e-02,0.00873125
6.5360e-02,0.00869375
6.5392e-02,0.00852188
6.5424e-02,0.00780938
6.5456e-02,0.00766875
6.5488e-02,0.00784063
6.5520e-02,0.0077875
6.5552e-02,0.00753125
6.5584e-02,0.007175
6.5616e-02,0.00656875
6.5648e-02,0.00676875
6.5680e-02,0.0071375
6.5712e-02,0.006775
6.5744e-02,0.00654063
6.5776e-02,0.0065625
6.5808e-02,0.00610313
6.5840e-02,0.00591875
6.5872e-02,0.00592188
6.5904e-02,0.00609063
6.5936e-02,0.00627813
6.5968e-02,0.0066625
6.6000e-02,0.00640938
6.6032e-02,0.00625938
6.6064e-02,0.00619063
6.6096e-02,0.00622188
6.6128e-02,0.00604063
6.6160e-02,0.00570313
6.6192e-02,0.00573125
6.6224e-02,0.00575938
6.6256e-02,0.005725
6.6288e-02,0.0053
6.6320e-02,0.00545
6.6352e-02,0.00516563
6.6384e-02,0.0049625
6.6416e-02,0.00501875
6.6448e-02,0.00514688
6.6480e-02,0.00497188
6.6512e-02,0.0051375
6.6544e-02,0.00502813
6.6576e-02,0.00524688
6.6608e-02,0.0052
6.6640e-02,0.00529688
6.6672e-02,0.00518125
6.6704e-02,0.0049375
6.6736e-02,0.00481563
6.6768e-02,0.00473438
6.6800e-02,0.0051875
6.6832e-02,0.0050625
6.6864e-02,0.00515313
6.6896e-02,0.00531875
6.6928e-02,0.00535625
6.6960e-02,0.00537188
6.6992e-02,0.00545313
6.7024e-02,0.005575
6.7056e-02,0.00528125
6.7088e-02,0.00531563
6.7120e-02,0.00545313
6.7152e-02,0.00535938
6.7184e-02,0.00510625
6.7216e-02,0.00520938
6.7248e-02,0.00495938
6.7280e-02,0.0050625
6.7312e-02,0.00514375
6.7344e-02,0.00526875
6.7376e-02,0.0051125
6.7408e-02,0.005175
6.7440e-02,0.00497813
6.7472e-02,0.00510625
6.7504e-02,0.00503125
6.7536e-02,0.00518125
6.7568e-02,0.00518438
6.7600e-02,0.005075
6.7632e-02,0.00499375
6.7664e-02,0.00502188
6.7696e-02,0.0053
6.7728e-02,0.005425
6.7760e-02,0.00542188
6.7792e-02,0.005625
6.7824e-02,0.00563125
6.7856e-02,0.0061375
6.7888e-02,0.00628438
6.7920e-02,0.00607188
6.7952e-02,0.00618438
6.7984e-02,0.00609375
6.8016e-02,0.00608125
6.8048e-02,0.00625313
6.8080e-02,0.00579688
6.8112e-02,0.00581875
6.8144e-02,0.005725
6.8176e-02,0.00577813
6.8208e-02,0.00608438
6.8240e-02,0.00585938
6.8272e-02,0.005625
6.8304e-02,0.00568438
6.8336e-02,0.00575313
6.8368e-02,0.00569375
6.8400e-02,0.00563125
6.8432e-02,0.00572188
6.8464e-02,0.00575
6.8496e-02,0.00569375
6.8528e-02,0.00537188
6.8560e-02,0.00546875
6.8592e-02,0.00555313
6.8624e-02,0.00536563
6.8656e-02,0.00510938
6.8688e-02,0.00517813
6.8720e-02,0.00524688
6.8752e-02,0.0051375
6.8784e-02,0.00505
6.8816e-02,0.00521875
6.8848e-02,0.00530313
6.8880e-02,0.00539688
6.8912e-02,0.00558438
6.8944e-02,0.00572813
6.8976e-02,0.00577813
6.9008e-02,0.00585938
6.9040e-02,0.00595938
6.9072e-02,0.00573438
6.9104e-02,0.00555938
6.9136e-02,0.0055625
6.9168e-02,0.00592813
6.9200e-02,0.00584063
6.9232e-02,0.00578125
6.9264e-02,0.00592813
6.9296e-02,0.00557188
6.9328e-02,0.00552188
6.9360e-02,0.0056375
6.9392e-02,0.0057
6.9424e-02,0.00601563
6.9456e-02,0.00581563
6.9488e-02,0.00585625
6.9520e-02,0.00557188
6.9552e-02,0.00571563
6.9584e-02,0.0054375
6.9616e-02,0.0053875
6.9648e-02,0.0054125
6.9680e-02,0.00546563
6.9712e-02,0.00595
6.9744e-02,0.00589063
6.9776e-02,0.00593438
6.9808e-02,0.00597813
6.9840e-02,0.0060625
6.9872e-02,0.00643438
6.9904e-02,0.00648438
6.9936e-02,0.00674375
6.9968e-02,0.00705
7.0000e-02,0.00718125
7.0032e-02,0.00682188
7.0064e-02,0.00676563
7.0096e-02,0.00712188
7.0128e-02,0.00749375
7.0160e-02,0.0072625
7.0192e-02,0.00726563
7.0224e-02,0.00701563
7.0256e-02,0.00712188
7.0288e-02,0.0076
7.0320e-02,0.00784375
7.0352e-02,0.00779688
7.0384e-02,0.00809375
7.0416e-02,0.00881875
7.0448e-02,0.009525
7.0480e-02,0.009625
7.0512e-02,0.0104344
7.0544e-02,0.0106438
7.0576e-02,0.0105938
7.0608e-02,0.0106781
7.0640e-02,0.0111875
7.0672e-02,0.0117281
7.0704e-02,0.012925
7.0736e-02,0.0137531
7.0768e-02,0.0142313
7.0800e-02,0.0146563
7.0832e-02,0.0156688
7.0864e-02,0.0156188
7.0896e-02,0.0170125
7.0928e-02,0.0183781
7.0960e-02,0.0191688
7.0992e-02,0.0197
7.1024e-02,0.0205906
7.1056e-02,0.0220406
7.1088e-02,0.0236969
7.1120e-02,0.0237469
7.1152e-02,0.0249594
7.1184e-02,0.0265438
7.1216e-02,0.0277469
7.1248e-02,0.0291531
7.1280e-02,0.0308375
7.1312e-02,0.0336094
7.1344e-02,0.0341719
7.1376e-02,0.0344094
7.1408e-02,0.0350406
7.1440e-02,0.037825
7.1472e-02,0.040225
7.1504e-02,0.0417875
7.1536e-02,0.0428281
7.1568e-02,0.045325
7.1600e-02,0.0471344
7.1632e-02,0.0507063
7.1664e-02,0.0539156
7.1696e-02,0.0572531
7.1728e-02,0.0608531
7.1760e-02,0.0634719
7.1792e-02,0.0689969
7.1824e-02,0.0741844
7.1856e-02,0.0788437
7.1888e-02,0.0814937
7.1920e-02,0.0872719
7.1952e-02,0.0912281
7.1984e-02,0.094775
7.2016e-02,0.0979406
7.2048e-02,0.101319
7.2080e-02,0.102019
7.2112e-02,0.101353
7.2144e-02,0.102225
7.2176e-02,0.104144
7.2208e-02,0.1041
7.2240e-02,0.103153
7.2272e-02,0.102462
7.2304e-02,0.10025
7.2336e-02,0.0968594
7.2368e-02,0.0957406
7.2400e-02,0.0944562
7.2432e-02,0.0915937
7.2464e-02,0.08795
7.2496e-02,0.0824219
7.2528e-02,0.0769187
7.2560e-02,0.0703
7.2592e-02,0.0640469
7.2624e-02,0.0576688
7.2656e-02,0.0524531
7.2688e-02,0.0468813
7.2720e-02,0.0422094
7.2752e-02,0.0390281
7.2784e-02,0.0349625
7.2816e-02,0.0299844
7.2848e-02,0.0267
7.2880e-02,0.0243563
7.2912e-02,0.022125
7.2944e-02,0.0206
7.2976e-02,0.0195063
7.3008e-02,0.0190813
7.3040e-02,0.0190719
7.3072e-02,0.0188406
7.3104e-02,0.0184375
7.3136e-02,0.0180344
7.3168e-02,0.0182688
7.3200e-02,0.0195281
7.3232e-02,0.0200531
7.3264e-02,0.0200125
7.3296e-02,0.0206281
7.3328e-02,0.0208469
7.3360e-02,0.0222906
7.3392e-02,0.0232625
7.3424e-02,0.0232906
7.3456e-02,0.0235469
7.3488e-02,0.0241969
7.3520e-02,0.0259063
7.3552e-02,0.0279344
7.3584e-02,0.0281625
7.3616e-02,0.0305688
7.3648e-02,0.0322844
7.3680e-02,0.0336156
7.3712e-02,0.0349906
7.3744e-02,0.0370406
7.3776e-02,0.0391219
7.3808e-02,0.0415563
7.3840e-02,0.0444563
7.3872e-02,0.0463219
7.3904e-02,0.0488938
7.3936e-02,0.0507656
7.3968e-02,0.0516031
7.4000e-02,0.0524063
7.4032e-02,0.0541406
7.4064e-02,0.054975
7.4096e-02,0.0552813
7.4128e-02,0.0558156
7.4160e-02,0.05545
7.4192e-02,0.0559844
7.4224e-02,0.0563063
7.4256e-02,0.0556375
7.4288e-02,0.0548313
7.4320e-02,0.0543281
7.4352e-02,0.0538563
7.4384e-02,0.0520281
7.4416e-02,0.0503063
7.4448e-02,0.0483938
7.4480e-02,0.046175
7.4512e-02,0.0431563
7.4544e-02,0.0399625
7.4576e-02,0.038
7.4608e-02,0.0352688
7.4640e-02,0.0318875
7.4672e-02,0.0284625
7.4704e-02,0.0260094
7.4736e-02,0.0241688
7.4768e-02,0.0216938
7.4800e-02,0.01935
7.4832e-02,0.0182094
7.4864e-02,0.0165781
7.4896e-02,0.0155219
7.4928e-02,0.0147
7.4960e-02,0.014325
7.4992e-02,0.0138094
7.5024e-02,0.0132281
7.5056e-02,0.0127125
7.5088e-02,0.0121875
7.5120e-02,0.0121281
7.5152e-02,0.011875
7.5184e-02,0.01195
7.5216e-02,0.0124625
7.5248e-02,0.0127781
7.5280e-02,0.012525
7.5312e-02,0.0125531
7.5344e-02,0.01265
7.5376e-02,0.0126813
7.5408e-02,0.0129688
7.5440e-02,0.0133781
7.5472e-02,0.0138469
7.5504e-02,0.0148531
7.5536e-02,0.0152063
7.5568e-02,0.0148531
7.5600e-02,0.0152094
7.5632e-02,0.0160844
7.5664e-02,0.0168688
7.5696e-02,0.0175969
7.5728e-02,0.0179
7.5760e-02,0.0177406
7.5792e-02,0.0180469
7.5824e-02,0.0190719
7.5856e-02,0.0198969
7.5888e-02,0.0205719
7.5920e-02,0.0207688
7.5952e-02,0.0209906
7.5984e-02,0.0215531
7.6016e-02,0.0222063
7.6048e-02,0.0223656
7.6080e-02,0.0222281
7.6112e-02,0.0222844
7.6144e-02,0.0217094
7.6176e-02,0.0209219
7.6208e-02,0.0202656
7.6240e-02,0.0204781
7.6272e-02,0.0202
7.6304e-02,0.0198719
7.6336e-02,0.0197125
7.6368e-02,0.0184938
7.6400e-02,0.0177938
7.6432e-02,0.0178688
7.6464e-02,0.0169563
7.6496e-02,0.0158344
7.6528e-02,0.0147063
7.6560e-02,0.0136281
7.6592e-02,0.0122781
7.6624e-02,0.0114188
7.6656e-02,0.0111
7.6688e-02,0.010325
7.6720e-02,0.00971563
7.6752e-02,0.00968438
7.6784e-02,0.00956875
7.6816e-02,0.00950625
7.6848e-02,0.00899063
7.6880e-02,0.00860625
7.6912e-02,0.00843125
7.6944e-02,0.008275
7.6976e-02,0.00809688
7.7008e-02,0.00777813
7.7040e-02,0.0084125
7.7072e-02,0.0085625
7.7104e-02,0.00819688
7.7136e-02,0.008325
7.7168e-02,0.00783125
7.7200e-02,0.00790938
7.7232e-02,0.00835938
7.7264e-02,0.00864688
7.7296e-02,0.0090625
7.7328e-02,0.009125
7.7360e-02,0.00890625
7.7392e-02,0.00926875
7.7424e-02,0.00990625
7.7456e-02,0.010175
7.7488e-02,0.0102844
7.7520e-02,0.0104281
7.7552e-02,0.0106281
7.7584e-02,0.0118656
7.7616e-02,0.0133469
7.7648e-02,0.0133813
7.7680e-02,0.0134438
7.7712e-02,0.0138656
7.7744e-02,0.0152344
7.7776e-02,0.0164031
7.7808e-02,0.0173656
7.7840e-02,0.0188344
7.7872e-02,0.0194813
7.7904e-02,0.0192344
7.7936e-02,0.0203906
7.7968e-02,0.0207781
7.8000e-02,0.0213813
7.8032e-02,0.0220156
7.8064e-02,0.0235188
7.8096e-02,0.0243938
7.8128e-02,0.0254531
7.8160e-02,0.0265094
7.8192e-02,0.0263531
7.8224e-02,0.0269594
7.8256e-02,0.0277375
7.8288e-02,0.0274656
7.8320e-02,0.0263063
7.8352e-02,0.0252844
7.8384e-02,0.0244875
7.8416e-02,0.0236844
7.8448e-02,0.0238625
7.8480e-02,0.0240344
7.8512e-02,0.0231625
7.8544e-02,0.0219031
7.8576e-02,0.0207313
7.8608e-02,0.0201844
7.8640e-02,0.01945
7.8672e-02,0.0191094
7.8704e-02,0.0188938
7.8736e-02,0.0180625
7.8768e-02,0.0181844
7.8800e-02,0.0178
7.8832e-02,0.0172219
7.8864e-02,0.0161688
7.8896e-02,0.0151594
7.8928e-02,0.0146094
7.8960e-02,0.0143875
7.8992e-02,0.0145156
7.9024e-02,0.0147375
7.9056e-02,0.0146188
7.9088e-02,0.0150469
7.9120e-02,0.0158625
7.9152e-02,0.0165688
7.9184e-02,0.0166875
7.9216e-02,0.0167094
7.9248e-02,0.0172594
7.9280e-02,0.0172438
7.9312e-02,0.0181188
7.9344e-02,0.0195563
7.9376e-02,0.0210531
7.9408e-02,0.0213438
7.9440e-02,0.0225313
7.9472e-02,0.0238125
7.9504e-02,0.0240281
7.9536e-02,0.02525
7.9568e-02,0.0266719
7.9600e-02,0.0279375
7.9632e-02,0.0296063
7.9664e-02,0.03125
7.9696e-02,0.0334531
7.9728e-02,0.0352656
7.9760e-02,0.036075
7.9792e-02,0.0372
7.9824e-02,0.0403125
7.9856e-02,0.0433844
7.9888e-02,0.0450656
7.9920e-02,0.0456
7.9952e-02,0.0468469
7.9984e-02,0.04825
8.0016e-02,0.0502438
8.0048e-02,0.0511531
8.0080e-02,0.0505688
8.0112e-02,0.0519813
8.0144e-02,0.0518625
8.0176e-02,0.0526094
8.0208e-02,0.0520906
8.0240e-02,0.0507188
8.0272e-02,0.0497344
8.0304e-02,0.048475
8.0336e-02,0.0478406
8.0368e-02,0.0467563
8.0400e-02,0.0440438
8.0432e-02,0.0419313
8.0464e-02,0.0382156
8.0496e-02,0.0355406
8.0528e-02,0.0333031
8.0560e-02,0.0312469
8.0592e-02,0.0300563
8.0624e-02,0.0287656
8.0656e-02,0.0269
8.0688e-02,0.0256469
8.0720e-02,0.0233563
8.0752e-02,0.0223188
8.0784e-02,0.0219531
8.0816e-02,0.0217094
8.0848e-02,0.021375
8.0880e-02,0.0213063
8.0912e-02,0.0216344
8.0944e-02,0.0216406
8.0976e-02,0.0222594
8.1008e-02,0.0226094
8.1040e-02,0.0234344
8.1072e-02,0.0244094
8.1104e-02,0.0242281
8.1136e-02,0.0246813
8.1168e-02,0.0252531
8.1200e-02,0.0266031
8.1232e-02,0.0271219
8.1264e-02,0.0277219
8.1296e-02,0.0291344
8.1328e-02,0.032225
8.1360e-02,0.0354438
8.1392e-02,0.0386219
8.1424e-02,0.0427406
8.1456e-02,0.0471375
8.1488e-02,0.0511844
8.1520e-02,0.0549156
8.1552e-02,0.0578344
8.1584e-02,0.0624156
8.1616e-02,0.0674313
8.1648e-02,0.072375
8.1680e-02,0.0755844
8.1712e-02,0.0790875
8.1744e-02,0.0833906
8.1776e-02,0.0881406
8.1808e-02,0.0912812
8.1840e-02,0.0949625
8.1872e-02,0.0986187
8.1904e-02,0.101487
8.1936e-02,0.104419
8.1968e-02,0.106325
8.2000e-02,0.107147
8.2032e-02,0.107791
8.2064e-02,0.107937
8.2096e-02,0.106941
8.2128e-02,0.106275
8.2160e-02,0.104769
8.2192e-02,0.101869
8.2224e-02,0.0993062
8.2256e-02,0.0978
8.2288e-02,0.09435
8.2320e-02,0.0890344
8.2352e-02,0.0837125
8.2384e-02,0.0783375
8.2416e-02,0.0750313
8.2448e-02,0.0692625
8.2480e-02,0.063275
8.2512e-02,0.05525
8.2544e-02,0.0492156
8.2576e-02,0.0444781
8.2608e-02,0.0396844
8.2640e-02,0.0355094
8.2672e-02,0.0315906
8.2704e-02,0.0280719
8.2736e-02,0.0254063
8.2768e-02,0.0235406
8.2800e-02,0.0214281
8.2832e-02,0.0192594
8.2864e-02,0.0170406
8.2896e-02,0.0148344
8.2928e-02,0.0131438
8.2960e-02,0.0118469
8.2992e-02,0.0106938
8.3024e-02,0.00986875
8.3056e-02,0.0098125
8.3088e-02,0.0092625
8.3120e-02,0.00876563
8.3152e-02,0.00861563
8.3184e-02,0.00793125
8.3216e-02,0.0075375
8.3248e-02,0.007475
8.3280e-02,0.007275
8.3312e-02,0.00688125
8.3344e-02,0.006575
8.3376e-02,0.0068
8.3408e-02,0.006925
8.3440e-02,0.0070375
8.3472e-02,0.00669063
8.3504e-02,0.00648438
8.3536e-02,0.0062625
8.3568e-02,0.00627813
8.3600e-02,0.00639688
8.3632e-02,0.00630938
8.3664e-02,0.00665
8.3696e-02,0.00677813
8.3728e-02,0.00659063
8.3760e-02,0.00648125
8.3792e-02,0.00654063
8.3824e-02,0.0065125
8.3856e-02,0.00604688
8.3888e-02,0.00589688
8.3920e-02,0.00580938
8.3952e-02,0.00588438
8.3984e-02,0.00629688
8.4016e-02,0.00619375
8.4048e-02,0.00606563
8.4080e-02,0.00595
8.4112e-02,0.00584688
8.4144e-02,0.00585625
8.4176e-02,0.00590313
8.4208e-02,0.00584375
8.4240e-02,0.0062625
8.4272e-02,0.006325
8.4304e-02,0.006075
8.4336e-02,0.00575625
8.4368e-02,0.00559063
8.4400e-02,0.00565
8.4432e-02,0.00563438
8.4464e-02,0.005525
8.4496e-02,0.00564688
8.4528e-02,0.005525
8.4560e-02,0.00557813
8.4592e-02,0.00549063
8.4624e-02,0.00523125
8.4656e-02,0.00505625
8.4688e-02,0.00508438
8.4720e-02,0.00537813
8.4752e-02,0.00499063
8.4784e-02,0.00519375
8.4816e-02,0.00541875
8.4848e-02,0.00568125
8.4880e-02,0.00572188
8.4912e-02,0.00585625
8.4944e-02,0.00580625
8.4976e-02,0.005575
8.5008e-02,0.00518125
8.5040e-02,0.00545313
8.5072e-02,0.00522188
8.5104e-02,0.00496875
8.5136e-02,0.00486875
8.5168e-02,0.005275
8.5200e-02,0.00525
8.5232e-02,0.00551563
8.5264e-02,0.00558438
8.5296e-02,0.00527188
8.5328e-02,0.00524375
8.5360e-02,0.00551563
8.5392e-02,0.00529063
8.5424e-02,0.00514375
8.5456e-02,0.005275
8.5488e-02,0.00546875
8.5520e-02,0.00544688
8.5552e-02,0.00554063
8.5584e-02,0.00535938
8.5616e-02,0.00535313
8.5648e-02,0.0055125
8.5680e-02,0.005475
8.5712e-02,0.00540938
8.5744e-02,0.0053
8.5776e-02,0.00542188
8.5808e-02,0.00590313
8.5840e-02,0.00648438
8.5872e-02,0.005825
8.5904e-02,0.00554375
8.5936e-02,0.00553438
8.5968e-02,0.00565
8.6000e-02,0.00540625
8.6032e-02,0.0050875
8.6064e-02,0.00495938
8.6096e-02,0.00538438
8.6128e-02,0.00520625
8.6160e-02,0.00516875
8.6192e-02,0.00512188
8.6224e-02,0.00525625
8.6256e-02,0.00591563
8.6288e-02,0.005675
8.6320e-02,0.00558438
8.6352e-02,0.00556563
8.6384e-02,0.0055125
8.6416e-02,0.0054125
8.6448e-02,0.00543438
8.6480e-02,0.00523438
8.6512e-02,0.00495313
8.6544e-02,0.00481563
8.6576e-02,0.004975
8.6608e-02,0.004925
8.6640e-02,0.00529063
8.6672e-02,0.00561563
8.6704e-02,0.0057625
8.6736e-02,0.00576563
8.6768e-02,0.00552188
8.6800e-02,0.00543438
8.6832e-02,0.00565625
8.6864e-02,0.00594375
8.6896e-02,0.00581875
8.6928e-02,0.00560313
8.6960e-02,0.00555
8.6992e-02,0.00571563
8.7024e-02,0.00591563
8.7056e-02,0.00580938
8.7088e-02,0.00565625
8.7120e-02,0.00545938
8.7152e-02,0.00538438
8.7184e-02,0.00582188
8.7216e-02,0.006025
8.7248e-02,0.005825
8.7280e-02,0.0058625
8.7312e-02,0.00592188
8.7344e-02,0.006075
8.7376e-02,0.0063
8.7408e-02,0.00644688
8.7440e-02,0.0062875
8.7472e-02,0.00665313
8.7504e-02,0.00683125
8.7536e-02,0.00685313
8.7568e-02,0.007275
8.7600e-02,0.00775625
8.7632e-02,0.00742813
8.7664e-02,0.00734688
8.7696e-02,0.00716563
8.7728e-02,0.0066
8.7760e-02,0.00656563
8.7792e-02,0.00701563
8.7824e-02,0.0072875
8.7856e-02,0.00759375
8.7888e-02,0.00731875
8.7920e-02,0.0075
8.7952e-02,0.00828438
8.7984e-02,0.00864063
8.8016e-02,0.00905938
8.8048e-02,0.00942188
8.8080e-02,0.00951875
8.8112e-02,0.00954375
8.8144e-02,0.0105156
8.8176e-02,0.0110531
8.8208e-02,0.0113688
8.8240e-02,0.0121031
8.8272e-02,0.0130344
8.8304e-02,0.0141063
8.8336e-02,0.0148031
8.8368e-02,0.0159031
8.8400e-02,0.0165688
8.8432e-02,0.0170156
8.8464e-02,0.0179875
8.8496e-02,0.0183188
8.8528e-02,0.0196656
8.8560e-02,0.0209375
8.8592e-02,0.0222656
8.8624e-02,0.0235
8.8656e-02,0.0236938
8.8688e-02,0.0240438
8.8720e-02,0.0251438
8.8752e-02,0.0264281
8.8784e-02,0.0284719
8.8816e-02,0.0293781
8.8848e-02,0.0310469
8.8880e-02,0.0318719
8.8912e-02,0.034875
8.8944e-02,0.038375
8.8976e-02,0.040325
8.9008e-02,0.0420281
8.9040e-02,0.0432875
8.9072e-02,0.0451469
8.9104e-02,0.0480125
8.9136e-02,0.0510813
8.9168e-02,0.0541156
8.9200e-02,0.0576813
8.9232e-02,0.0612219
8.9264e-02,0.0655938
8.9296e-02,0.0687656
8.9328e-02,0.0727125
8.9360e-02,0.0784375
8.9392e-02,0.0827156
8.9424e-02,0.0860531
8.9456e-02,0.0912687
8.9488e-02,0.0942656
8.9520e-02,0.095725
8.9552e-02,0.0980937
8.9584e-02,0.100069
8.9616e-02,0.101187
8.9648e-02,0.101962
8.9680e-02,0.103731
8.9712e-02,0.102906
8.9744e-02,0.101625
8.9776e-02,0.100516
8.9808e-02,0.0994062
8.9840e-02,0.0980375
8.9872e-02,0.0946625
8.9904e-02,0.0925406
8.9936e-02,0.0894437
8.9968e-02,0.0861906
9.0000e-02,0.0815531
9.0032e-02,0.0787875
9.0064e-02,0.0722344
9.0096e-02,0.0658031
9.0128e-02,0.0597156
9.0160e-02,0.0534938
9.0192e-02,0.0474063
9.0224e-02,0.0418969
9.0256e-02,0.0370281
9.0288e-02,0.0328531
9.0320e-02,0.02895
9.0352e-02,0.026125
9.0384e-02,0.0242344
9.0416e-02,0.0228719
9.0448e-02,0.0213438
9.0480e-02,0.0204625
9.0512e-02,0.0193156
9.0544e-02,0.0185344
9.0576e-02,0.0192156
9.0608e-02,0.0192156
9.0640e-02,0.0195875
9.0672e-02,0.0194969
9.0704e-02,0.0191094
9.0736e-02,0.0195813
9.0768e-02,0.0203281
9.0800e-02,0.0210344
9.0832e-02,0.0221094
9.0864e-02,0.0234438
9.0896e-02,0.0253438
9.0928e-02,0.0259156
9.0960e-02,0.0278813
9.0992e-02,0.0293219
9.1024e-02,0.0307375
9.1056e-02,0.0318719
9.1088e-02,0.0326781
9.1120e-02,0.0333906
9.1152e-02,0.0351906
9.1184e-02,0.0383125
9.1216e-02,0.0406625
9.1248e-02,0.0424281
9.1280e-02,0.04405
9.1312e-02,0.0464656
9.1344e-02,0.0478
9.1376e-02,0.0492375
9.1408e-02,0.0502313
9.1440e-02,0.0506938
9.1472e-02,0.0527656
9.1504e-02,0.0540563
9.1536e-02,0.0550156
9.1568e-02,0.0551688
9.1600e-02,0.0555438
9.1632e-02,0.0565906
9.1664e-02,0.0566094
9.1696e-02,0.056275
9.1728e-02,0.0550281
9.1760e-02,0.0527156
9.1792e-02,0.051725
9.1824e-02,0.0505906
9.1856e-02,0.0491469
9.1888e-02,0.0463031
9.1920e-02,0.0439031
9.1952e-02,0.04055
9.1984e-02,0.0393656
9.2016e-02,0.0377688
9.2048e-02,0.0341344
9.2080e-02,0.0310969
9.2112e-02,0.0284563
9.2144e-02,0.0256906
9.2176e-02,0.0231344
9.2208e-02,0.0209563
9.2240e-02,0.0187469
9.2272e-02,0.0168156
9.2304e-02,0.016075
9.2336e-02,0.0153938
9.2368e-02,0.0150188
9.2400e-02,0.0143938
9.2432e-02,0.0140188
9.2464e-02,0.0135125
9.2496e-02,0.0129031
9.2528e-02,0.0125188
9.2560e-02,0.0125344
9.2592e-02,0.0122281
9.2624e-02,0.0118188
9.2656e-02,0.0117406
9.2688e-02,0.0123156
9.2720e-02,0.0130469
9.2752e-02,0.014025
9.2784e-02,0.0139719
9.2816e-02,0.0137781
9.2848e-02,0.0143813
9.2880e-02,0.0155813
9.2912e-02,0.0159438
9.2944e-02,0.0160875
9.2976e-02,0.016375
9.3008e-02,0.0165281
9.3040e-02,0.0172813
9.3072e-02,0.0173969
9.3104e-02,0.0182531
9.3136e-02,0.0189719
9.3168e-02,0.0196688
9.3200e-02,0.01985
9.3232e-02,0.0201031
9.3264e-02,0.0205938
9.3296e-02,0.0212438
9.3328e-02,0.021525
9.3360e-02,0.0211156
9.3392e-02,0.02055
9.3424e-02,0.0205219
9.3456e-02,0.0214375
9.3488e-02,0.0210969
9.3520e-02,0.0212344
9.3552e-02,0.021125
9.3584e-02,0.021525
9.3616e-02,0.0206656
9.3648e-02,0.0196438
9.3680e-02,0.0189656
9.3712e-02,0.0185344
9.3744e-02,0.0181156
9.3776e-02,0.0177344
9.3808e-02,0.0167594
9.3840e-02,0.0160875
9.3872e-02,0.0154219
9.3904e-02,0.0145625
9.3936e-02,0.0138031
9.3968e-02,0.012775
9.4000e-02,0.0125094
9.4032e-02,0.0119531
9.4064e-02,0.0110781
9.4096e-02,0.0105375
9.4128e-02,0.010175
9.4160e-02,0.0096875
9.4192e-02,0.0094375
9.4224e-02,0.009025
9.4256e-02,0.00870625
9.4288e-02,0.00825625
9.4320e-02,0.00787813
9.4352e-02,0.00790313
9.4384e-02,0.00796875
9.4416e-02,0.00777813
9.4448e-02,0.008125
9.4480e-02,0.00871875
9.4512e-02,0.008725
9.4544e-02,0.00839375
9.4576e-02,0.00863125
9.4608e-02,0.00853125
9.4640e-02,0.00814063
9.4672e-02,0.0088875
9.4704e-02,0.00971875
9.4736e-02,0.00999063
9.4768e-02,0.00986875
9.4800e-02,0.0100344
9.4832e-02,0.0107469
9.4864e-02,0.0113125
9.4896e-02,0.0119875
9.4928e-02,0.0129906
9.4960e-02,0.0137281
9.4992e-02,0.0148438
9.5024e-02,0.0155844
9.5056e-02,0.0153063
9.5088e-02,0.0160188
9.5120e-02,0.0164531
9.5152e-02,0.0173625
9.5184e-02,0.0183844
9.5216e-02,0.0189125
9.5248e-02,0.0199656
9.5280e-02,0.0211438
9.5312e-02,0.0213156
9.5344e-02,0.0218094
9.5376e-02,0.0230031
9.5408e-02,0.02345
9.5440e-02,0.0240063
9.5472e-02,0.0236531
9.5504e-02,0.0237344
9.5536e-02,0.024525
9.5568e-02,0.0250875
9.5600e-02,0.0251656
9.5632e-02,0.0259938
9.5664e-02,0.0255219
9.5696e-02,0.0241469
9.5728e-02,0.0237656
9.5760e-02,0.0240375
9.5792e-02,0.0230906
9.5824e-02,0.02295
9.5856e-02,0.0224063
9.5888e-02,0.0213875
9.5920e-02,0.0216094
9.5952e-02,0.0208094
9.5984e-02,0.0198719
9.6016e-02,0.0191656
9.6048e-02,0.0185469
9.6080e-02,0.0174125
9.6112e-02,0.0167219
9.6144e-02,0.0158094
9.6176e-02,0.0156063
9.6208e-02,0.0152438
9.6240e-02,0.015075
9.6272e-02,0.0152625
9.6304e-02,0.0152031
9.6336e-02,0.014925
9.6368e-02,0.0152906
9.6400e-02,0.0152813
9.6432e-02,0.0155063
9.6464e-02,0.0159781
9.6496e-02,0.0165719
9.6528e-02,0.0173563
9.6560e-02,0.0172656
9.6592e-02,0.0179219
9.6624e-02,0.0185969
9.6656e-02,0.0191125
9.6688e-02,0.0198281
9.6720e-02,0.0208781
9.6752e-02,0.0216188
9.6784e-02,0.0242531
9.6816e-02,0.0258844
9.6848e-02,0.027175
9.6880e-02,0.0283781
9.6912e-02,0.0292094
9.6944e-02,0.0311781
9.6976e-02,0.0335125
9.7008e-02,0.0356719
9.7040e-02,0.0372063
9.7072e-02,0.0391031
9.7104e-02,0.0407438
9.7136e-02,0.0423563
9.7168e-02,0.0435813
9.7200e-02,0.0448438
9.7232e-02,0.0469063
9.7264e-02,0.0471313
9.7296e-02,0.0481938
9.7328e-02,0.0487813
9.7360e-02,0.0498938
9.7392e-02,0.0523188
9.7424e-02,0.0520563
9.7456e-02,0.0510844
9.7488e-02,0.0501719
9.7520e-02,0.0485563
9.7552e-02,0.0476563
9.7584e-02,0.0466375
9.7616e-02,0.0447625
9.7648e-02,0.0445313
9.7680e-02,0.0442906
9.7712e-02,0.0436063
9.7744e-02,0.041975
9.7776e-02,0.0403219
9.7808e-02,0.0380219
9.7840e-02,0.0355219
9.7872e-02,0.0333781
9.7904e-02,0.0319188
9.7936e-02,0.029825
9.7968e-02,0.0279
9.8000e-02,0.0263281
9.8032e-02,0.0249344
9.8064e-02,0.0233344
9.8096e-02,0.0226344
9.8128e-02,0.0226188
9.8160e-02,0.0224813
9.8192e-02,0.0222969
9.8224e-02,0.0213969
9.8256e-02,0.0213594
9.8288e-02,0.0220969
9.8320e-02,0.0233188
9.8352e-02,0.0237344
9.8384e-02,0.02415
9.8416e-02,0.02455
9.8448e-02,0.0246094
9.8480e-02,0.0251719
9.8512e-02,0.0282969
9.8544e-02,0.0304719
9.8576e-02,0.0324125
9.8608e-02,0.0344469
9.8640e-02,0.037675
9.8672e-02,0.0404094
9.8704e-02,0.0430625
9.8736e-02,0.0458719
9.8768e-02,0.0487906
9.8800e-02,0.0528594
9.8832e-02,0.0571625
9.8864e-02,0.0606219
9.8896e-02,0.0653438
9.8928e-02,0.0682344
9.8960e-02,0.0737031
9.8992e-02,0.0813594
9.9024e-02,0.0852344
9.9056e-02,0.0884937
9.9088e-02,0.0916062
9.9120e-02,0.0930687
9.9152e-02,0.0961344
9.9184e-02,0.098725
9.9216e-02,0.100772
9.9248e-02,0.101853
9.9280e-02,0.101437
9.9312e-02,0.102187
9.9344e-02,0.101909
9.9376e-02,0.101184
9.9408e-02,0.101125
9.9440e-02,0.100962
9.9472e-02,0.100516
9.9504e-02,0.0981125
9.9536e-02,0.095025
9.9568e-02,0.0922969
9.9600e-02,0.0899937
9.9632e-02,0.0853469
9.9664e-02,0.0792062
9.9696e-02,0.0739781
9.9728e-02,0.0696563
9.9760e-02,0.0629313
9.9792e-02,0.0565313
9.9824e-02,0.0511688
9.9856e-02,0.0471313
9.9888e-02,0.0419281
9.9920e-02,0.0379125
9.9952e-02,0.0342156
9.9984e-02,0.0304094
1.0002e-01,0.0267188
1.0005e-01,0.0237438
1.0008e-01,0.02115
1.0011e-01,0.0188781
1.0014e-01,0.0170125
1.0018e-01,0.0157969
1.0021e-01,0.0146688
1.0024e-01,0.0139188
1.0027e-01,0.0130188
1.0030e-01,0.0118781
1.0034e-01,0.0112156
1.0037e-01,0.0104656
1.0040e-01,0.00944063
1.0043e-01,0.0086875
1.0046e-01,0.00849688
1.0050e-01,0.00828438
1.0053e-01,0.00818125
1.0056e-01,0.00776875
1.0059e-01,0.00777813
1.0062e-01,0.00765938
1.0066e-01,0.00721875
1.0069e-01,0.006575
1.0072e-01,0.00603438
1.0075e-01,0.00613438
1.0078e-01,0.00621563
1.0082e-01,0.00634688
1.0085e-01,0.0065625
1.0088e-01,0.00675313
1.0091e-01,0.00661875
1.0094e-01,0.00677813
1.0098e-01,0.00646563
1.0101e-01,0.00626875
1.0104e-01,0.006475
1.0107e-01,0.00644688
1.0110e-01,0.00610625
1.0114e-01,0.00619375
1.0117e-01,0.0065375
1.0120e-01,0.0062
1.0123e-01,0.00580938
1.0126e-01,0.00579375
1.0130e-01,0.00570625
1.0133e-01,0.00570625
1.0136e-01,0.00573125
1.0139e-01,0.0064375
1.0142e-01,0.0066
1.0146e-01,0.00623125
1.0149e-01,0.005825
1.0152e-01,0.00563438
1.0155e-01,0.00538125
1.0158e-01,0.00526563
1.0162e-01,0.0053375
1.0165e-01,0.00520625
1.0168e-01,0.00507188
1.0171e-01,0.00504063
1.0174e-01,0.00525625
1.0178e-01,0.00545625
1.0181e-01,0.00577188
1.0184e-01,0.00584688
1.0187e-01,0.0055625
1.0190e-01,0.00540938
1.0194e-01,0.005225
1.0197e-01,0.00495313
1.0200e-01,0.0052875
1.0203e-01,0.0055875
1.0206e-01,0.0056
1.0210e-01,0.00532188
1.0213e-01,0.0051875
1.0216e-01,0.0050375
1.0219e-01,0.00525313
1.0222e-01,0.0051375
1.0226e-01,0.00539688
1.0229e-01,0.005375
1.0232e-01,0.00533125
1.0235e-01,0.00524375
1.0238e-01,0.005075
1.0242e-01,0.00501875
1.0245e-01,0.00466875
1.0248e-01,0.00505
1.0251e-01,0.00499063
1.0254e-01,0.0048625
1.0258e-01,0.00519375
1.0261e-01,0.00551875
1.0264e-01,0.00562813
1.0267e-01,0.00557188
1.0270e-01,0.00526563
1.0274e-01,0.00536875
1.0277e-01,0.0052875
1.0280e-01,0.00520938
1.0283e-01,0.0053125
1.0286e-01,0.00506875
1.0290e-01,0.0057375
1.0293e-01,0.00572188
1.0296e-01,0.005575
1.0299e-01,0.00556875
1.0302e-01,0.00589375
1.0306e-01,0.00581563
1.0309e-01,0.0056375
1.0312e-01,0.00544063
1.0315e-01,0.00536875
1.0318e-01,0.00562188
1.0322e-01,0.00573125
1.0325e-01,0.00598125
1.0328e-01,0.00622813
1.0331e-01,0.00624375
1.0334e-01,0.00583438
1.0338e-01,0.00600625
1.0341e-01,0.0058375
1.0344e-01,0.00568125
1.0347e-01,0.0057875
1.0350e-01,0.00544063
1.0354e-01,0.00542813
1.0357e-01,0.00547813
1.0360e-01,0.00545625
1.0363e-01,0.00548125
1.0366e-01,0.0058375
1.0370e-01,0.0055875
1.0373e-01,0.00515313
1.0376e-01,0.00559688
1.0379e-01,0.00592813
1.0382e-01,0.0059125
1.0386e-01,0.00557188
1.0389e-01,0.00541563
1.0392e-01,0.005325
1.0395e-01,0.00546875
1.0398e-01,0.00582813
1.0402e-01,0.00568125
1.0405e-01,0.00541875
1.0408e-01,0.00541875
1.0411e-01,0.00524375
1.0414e-01,0.00535313
1.0418e-01,0.00547188
1.0421e-01,0.00567188
1.0424e-01,0.00558125
1.0427e-01,0.00580938
1.0430e-01,0.00567813
1.0434e-01,0.00554688
1.0437e-01,0.0058125
1.0440e-01,0.00573125
1.0443e-01,0.00579375
1.0446e-01,0.0060125
1.0450e-01,0.00609688
1.0453e-01,0.00633438
1.0456e-01,0.00657813
1.0459e-01,0.00686875
1.0462e-01,0.00674063
1.0466e-01,0.006575
1.0469e-01,0.00669688
1.0472e-01,0.00684375
1.0475e-01,0.00694063
1.0478e-01,0.00659375
1.0482e-01,0.00660313
1.0485e-01,0.00646563
1.0488e-01,0.00658125
1.0491e-01,0.0065625
1.0494e-01,0.00660625
1.0498e-01,0.00674063
1.0501e-01,0.00647813
1.0504e-01,0.0062125
1.0507e-01,0.00607188
1.0510e-01,0.00590938
1.0514e-01,0.00615313
1.0517e-01,0.0065375
1.0520e-01,0.007025
1.0523e-01,0.006975
1.0526e-01,0.00657188
1.0530e-01,0.00642813
1.0533e-01,0.0061
1.0536e-01,0.0063875
1.0539e-01,0.00634688
1.0542e-01,0.00602188
1.0546e-01,0.00590625
1.0549e-01,0.00576875
1.0552e-01,0.00603438
1.0555e-01,0.00620625
1.0558e-01,0.00625
1.0562e-01,0.00617188
1.0565e-01,0.00622813
1.0568e-01,0.00607188
1.0571e-01,0.00588125
1.0574e-01,0.005825
1.0578e-01,0.00585938
1.0581e-01,0.0061625
1.0584e-01,0.0060625
1.0587e-01,0.00551875
1.0590e-01,0.00583125
1.0594e-01,0.00575313
1.0597e-01,0.00583438
1.0600e-01,0.0059125
1.0603e-01,0.00596875
1.0606e-01,0.00562813
1.0610e-01,0.00556875
1.0613e-01,0.00583438
1.0616e-01,0.00579375
1.0619e-01,0.00562188
1.0622e-01,0.0054625
1.0626e-01,0.00538125
1.0629e-01,0.00521563
1.0632e-01,0.00540625
1.0635e-01,0.0055
1.0638e-01,0.00583438
1.0642e-01,0.0059
1.0645e-01,0.00573125
1.0648e-01,0.00547188
1.0651e-01,0.00535
1.0654e-01,0.00553438
1.0658e-01,0.00538125
1.0661e-01,0.00534375
1.0664e-01,0.00537813
1.0667e-01,0.00544063
1.0670e-01,0.0055375
1.0674e-01,0.00543125
1.0677e-01,0.0052
1.0680e-01,0.0053875
1.0683e-01,0.00549063
1.0686e-01,0.00560625
1.0690e-01,0.00572188
1.0693e-01,0.00576563
1.0696e-01,0.00595625
1.0699e-01,0.00617813
1.0702e-01,0.00617813
1.0706e-01,0.00609063
1.0709e-01,0.00654375
1.0712e-01,0.0073375
1.0715e-01,0.00865625
1.0718e-01,0.011725
1.0722e-01,0.0172531
1.0725e-01,0.0258031
1.0728e-01,0.0380438
1.0731e-01,0.0503219
1.0734e-01,0.0640563
1.0738e-01,0.0746031
1.0741e-01,0.0813187
1.0744e-01,0.0837344
1.0747e-01,0.0790312
1.0750e-01,0.071575
1.0754e-01,0.0619313
1.0757e-01,0.0544313
1.0760e-01,0.0468656
1.0763e-01,0.0416406
1.0766e-01,0.0373781
1.0770e-01,0.0347625
1.0773e-01,0.0356656
1.0776e-01,0.0377844
1.0779e-01,0.039625
1.0782e-01,0.0407813
1.0786e-01,0.041
1.0789e-01,0.0405
1.0792e-01,0.0379031
1.0795e-01,0.0340688
1.0798e-01,0.0302438
1.0802e-01,0.0268656
1.0805e-01,0.0241188
1.0808e-01,0.0221594
1.0811e-01,0.0210156
1.0814e-01,0.0213156
1.0818e-01,0.02205
1.0821e-01,0.0216
1.0824e-01,0.0216063
1.0827e-01,0.0216406
1.0830e-01,0.01985
1.0834e-01,0.0178063
1.0837e-01,0.015825
1.0840e-01,0.0141313
1.0843e-01,0.0125813
1.0846e-01,0.0113063
1.0850e-01,0.0110813
1.0853e-01,0.0118
1.0856e-01,0.0133344
1.0859e-01,0.0145969
1.0862e-01,0.01555
1.0866e-01,0.0169813
1.0869e-01,0.0171844
1.0872e-01,0.0165406
1.0875e-01,0.0153688
1.0878e-01,0.01495
1.0882e-01,0.0156719
1.0885e-01,0.0180406
1.0888e-01,0.0225688
1.0891e-01,0.0303594
1.0894e-01,0.0375625
1.0898e-01,0.0413219
1.0901e-01,0.0418719
1.0904e-01,0.0394969
1.0907e-01,0.0364875
1.0910e-01,0.0327688
1.0914e-01,0.0305938
1.0917e-01,0.0304594
1.0920e-01,0.0358406
1.0923e-01,0.0473125
1.0926e-01,0.0613625
1.0930e-01,0.0710875
1.0933e-01,0.0732781
1.0936e-01,0.0693719
1.0939e-01,0.0624625
1.0942e-01,0.0547375
1.0946e-01,0.0476938
1.0949e-01,0.0411406
1.0952e-01,0.0346844
1.0955e-01,0.0282969
1.0958e-01,0.0223219
1.0962e-01,0.0180375
1.0965e-01,0.0145938
1.0968e-01,0.0117656
1.0971e-01,0.00954375
1.0974e-01,0.00845938
1.0978e-01,0.00772188
1.0981e-01,0.007075
1.0984e-01,0.00672813
1.0987e-01,0.00601875
1.0990e-01,0.00585625
1.0994e-01,0.00580625
1.0997e-01,0.00579375
1.1000e-01,0.0058625
1.1003e-01,0.0054625
1.1006e-01,0.00525625
1.1010e-01,0.00561875
1.1013e-01,0.00595313
1.1016e-01,0.00583125
1.1019e-01,0.00590625
1.1022e-01,0.00580625
1.1026e-01,0.00592188
1.1029e-01,0.00632188
1.1032e-01,0.00749688
1.1035e-01,0.00896875
1.1038e-01,0.0130969
1.1042e-01,0.0240219
1.1045e-01,0.0395719
1.1048e-01,0.0539156
1.1051e-01,0.0632219
1.1054e-01,0.0635125
1.1058e-01,0.0580063
1.1061e-01,0.0521656
1.1064e-01,0.0465781
1.1067e-01,0.0434375
1.1070e-01,0.0424906
1.1074e-01,0.0447688
1.1077e-01,0.0460031
1.1080e-01,0.044675
1.1083e-01,0.0401875
1.1086e-01,0.0349188
1.1090e-01,0.0299688
1.1093e-01,0.0260969
1.1096e-01,0.0244531
1.1099e-01,0.0239469
1.1102e-01,0.0241188
1.1106e-01,0.0232531
1.1109e-01,0.021275
1.1112e-01,0.019075
1.1115e-01,0.0168625
1.1118e-01,0.0148063
1.1122e-01,0.013675
1.1125e-01,0.0136188
1.1128e-01,0.0143313
1.1131e-01,0.01535
1.1134e-01,0.0162281
1.1138e-01,0.0170688
1.1141e-01,0.01645
1.1144e-01,0.0152
1.1147e-01,0.0151781
1.1150e-01,0.018175
1.1154e-01,0.0247719
1.1157e-01,0.031
1.1160e-01,0.0339094
1.1163e-01,0.0336219
1.1166e-01,0.03285
1.1170e-01,0.0307781
1.1173e-01,0.029475
1.1176e-01,0.0336844
1.1179e-01,0.04515
1.1182e-01,0.0583219
1.1186e-01,0.0645156
1.1189e-01,0.0649188
1.1192e-01,0.0597625
1.1195e-01,0.0524531
1.1198e-01,0.0455938
1.1202e-01,0.0395063
1.1205e-01,0.0337438
1.1208e-01,0.0280594
1.1211e-01,0.0225906
1.1214e-01,0.0174063
1.1218e-01,0.0135719
1.1221e-01,0.0108375
1.1224e-01,0.00884688
1.1227e-01,0.00753125
1.1230e-01,0.00670938
1.1234e-01,0.0063
1.1237e-01,0.00605938
1.1240e-01,0.00584063
1.1243e-01,0.00588438
1.1246e-01,0.00557813
1.1250e-01,0.00549688
1.1253e-01,0.00543438
1.1256e-01,0.00560313
1.1259e-01,0.00560625
1.1262e-01,0.00622188
1.1266e-01,0.00661563
1.1269e-01,0.00851875
1.1272e-01,0.0130063
1.1275e-01,0.0243
1.1278e-01,0.0410219
1.1282e-01,0.0542688
1.1285e-01,0.0587719
1.1288e-01,0.0571906
1.1291e-01,0.0520063
1.1294e-01,0.0468469
1.1298e-01,0.0439125
1.1301e-01,0.0439188
1.1304e-01,0.044425
1.1307e-01,0.0438281
1.1310e-01,0.0409125
1.1314e-01,0.0356344
1.1317e-01,0.0306469

