Model,MSO2024
Firmware Version,1.52

Point Format,Y
Horizontal Units,S
Horizontal Scale,0.01
Sample Interval,3.2e-05
Filter Frequency,2e+08
Record Length,3125
Gating,0.0% to 100.0%
Probe Attenuation,1
Vertical Units,V
Vertical Offset,0
Vertical Scale,0.2
Label,
TIME,CH1
1.3200e-02,0.0224375
1.3232e-02,0.02325
1.3264e-02,0.0239375
1.3296e-02,0.0236563
1.3328e-02,0.0242813
1.3360e-02,0.025
1.3392e-02,0.0260313
1.3424e-02,0.0266875
1.3456e-02,0.0269688
1.3488e-02,0.0278125
1.3520e-02,0.0289688
1.3552e-02,0.0294063
1.3584e-02,0.0301875
1.3616e-02,0.0305
1.3648e-02,0.0306875
1.3680e-02,0.0323438
1.3712e-02,0.0343125
1.3744e-02,0.0345938
1.3776e-02,0.0355938
1.3808e-02,0.0367188
1.3840e-02,0.0370313
1.3872e-02,0.0381875
1.3904e-02,0.0390938
1.3936e-02,0.0393438
1.3968e-02,0.0404375
1.4000e-02,0.0415625
1.4032e-02,0.041875
1.4064e-02,0.0419063
1.4096e-02,0.0433125
1.4128e-02,0.0455938
1.4160e-02,0.0440938
1.4192e-02,0.0439375
1.4224e-02,0.0438438
1.4256e-02,0.045375
1.4288e-02,0.0460625
1.4320e-02,0.0461875
1.4352e-02,0.0477188
1.4384e-02,0.0471875
1.4416e-02,0.0476563
1.4448e-02,0.046
1.4480e-02,0.0445313
1.4512e-02,0.0441875
1.4544e-02,0.0433438
1.4576e-02,0.0416563
1.4608e-02,0.040125
1.4640e-02,0.0407188
1.4672e-02,0.039625
1.4704e-02,0.038625
1.4736e-02,0.0370313
1.4768e-02,0.03575
1.4800e-02,0.0341875
1.4832e-02,0.0333125
1.4864e-02,0.0310313
1.4896e-02,0.0304688
1.4928e-02,0.0285938
1.4960e-02,0.0265
1.4992e-02,0.0245938
1.5024e-02,0.0225625
1.5056e-02,0.0216563
1.5088e-02,0.0216875
1.5120e-02,0.0210625
1.5152e-02,0.019375
1.5184e-02,0.0185
1.5216e-02,0.018375
1.5248e-02,0.0183125
1.5280e-02,0.017625
1.5312e-02,0.0178125
1.5344e-02,0.0178438
1.5376e-02,0.0169375
1.5408e-02,0.0163438
1.5440e-02,0.016375
1.5472e-02,0.0160938
1.5504e-02,0.0150625
1.5536e-02,0.0145313
1.5568e-02,0.0145313
1.5600e-02,0.01425
1.5632e-02,0.01475
1.5664e-02,0.0144375
1.5696e-02,0.0144688
1.5728e-02,0.0139688
1.5760e-02,0.0139375
1.5792e-02,0.0140313
1.5824e-02,0.0139375
1.5856e-02,0.0143438
1.5888e-02,0.0141563
1.5920e-02,0.0141875
1.5952e-02,0.0136875
1.5984e-02,0.0132813
1.6016e-02,0.0137188
1.6048e-02,0.0134688
1.6080e-02,0.0139375
1.6112e-02,0.0140313
1.6144e-02,0.0140938
1.6176e-02,0.0142813
1.6208e-02,0.013875
1.6240e-02,0.0139375
1.6272e-02,0.0139688
1.6304e-02,0.0137813
1.6336e-02,0.0138125
1.6368e-02,0.0140625
1.6400e-02,0.014125
1.6432e-02,0.0140313
1.6464e-02,0.0135
1.6496e-02,0.013125
1.6528e-02,0.0135938
1.6560e-02,0.0139375
1.6592e-02,0.0141563
1.6624e-02,0.0141563
1.6656e-02,0.0142813
1.6688e-02,0.014125
1.6720e-02,0.0135
1.6752e-02,0.0130313
1.6784e-02,0.0126875
1.6816e-02,0.014
1.6848e-02,0.0139375
1.6880e-02,0.0139688
1.6912e-02,0.0138125
1.6944e-02,0.0132813
1.6976e-02,0.0127188
1.7008e-02,0.0141563
1.7040e-02,0.0141563
1.7072e-02,0.01425
1.7104e-02,0.0143438
1.7136e-02,0.0142813
1.7168e-02,0.0142813
1.7200e-02,0.0143125
1.7232e-02,0.0139375
1.7264e-02,0.0135625
1.7296e-02,0.0139063
1.7328e-02,0.0139375
1.7360e-02,0.01425
1.7392e-02,0.0133438
1.7424e-02,0.0135938
1.7456e-02,0.0138125
1.7488e-02,0.0141563
1.7520e-02,0.014125
1.7552e-02,0.013625
1.7584e-02,0.0135
1.7616e-02,0.0134063
1.7648e-02,0.013125
1.7680e-02,0.013375
1.7712e-02,0.0140938
1.7744e-02,0.0141563
1.7776e-02,0.0141875
1.7808e-02,0.0142188
1.7840e-02,0.0141563
1.7872e-02,0.0140938
1.7904e-02,0.0140938
1.7936e-02,0.0143438
1.7968e-02,0.0143125
1.8000e-02,0.014125
1.8032e-02,0.0142813
1.8064e-02,0.0142813
1.8096e-02,0.0144063
1.8128e-02,0.0147188
1.8160e-02,0.0142813
1.8192e-02,0.0143125
1.8224e-02,0.013875
1.8256e-02,0.013625
1.8288e-02,0.0141563
1.8320e-02,0.0140938
1.8352e-02,0.0140313
1.8384e-02,0.0140938
1.8416e-02,0.0141875
1.8448e-02,0.0140625
1.8480e-02,0.0140625
1.8512e-02,0.0140625
1.8544e-02,0.0142813
1.8576e-02,0.01425
1.8608e-02,0.0139063
1.8640e-02,0.0132188
1.8672e-02,0.0124063
1.8704e-02,0.0126563
1.8736e-02,0.0130938
1.8768e-02,0.014375
1.8800e-02,0.0144063
1.8832e-02,0.0140625
1.8864e-02,0.0142188
1.8896e-02,0.0139375
1.8928e-02,0.014
1.8960e-02,0.0140625
1.8992e-02,0.0143125
1.9024e-02,0.0140625
1.9056e-02,0.0140625
1.9088e-02,0.0135625
1.9120e-02,0.0134688
1.9152e-02,0.0126875
1.9184e-02,0.0129688
1.9216e-02,0.0136875
1.9248e-02,0.0125625
1.9280e-02,0.012625
1.9312e-02,0.0135625
1.9344e-02,0.0129063
1.9376e-02,0.01325
1.9408e-02,0.0132813
1.9440e-02,0.013375
1.9472e-02,0.013875
1.9504e-02,0.0131875
1.9536e-02,0.0133125
1.9568e-02,0.01325
1.9600e-02,0.0140625
1.9632e-02,0.0140938
1.9664e-02,0.0139688
1.9696e-02,0.0137813
1.9728e-02,0.0137813
1.9760e-02,0.0136563
1.9792e-02,0.0143438
1.9824e-02,0.014875
1.9856e-02,0.0135625
1.9888e-02,0.014
1.9920e-02,0.013875
1.9952e-02,0.0140938
1.9984e-02,0.0137188
2.0016e-02,0.0136875
2.0048e-02,0.0128438
2.0080e-02,0.012625
2.0112e-02,0.0129063
2.0144e-02,0.0135
2.0176e-02,0.01275
2.0208e-02,0.0137188
2.0240e-02,0.0136875
2.0272e-02,0.0139375
2.0304e-02,0.0136563
2.0336e-02,0.014125
2.0368e-02,0.014125
2.0400e-02,0.0140938
2.0432e-02,0.0146875
2.0464e-02,0.014
2.0496e-02,0.0144375
2.0528e-02,0.0138438
2.0560e-02,0.014125
2.0592e-02,0.0140625
2.0624e-02,0.0134375
2.0656e-02,0.0128125
2.0688e-02,0.0126563
2.0720e-02,0.0130313
2.0752e-02,0.0133438
2.0784e-02,0.0138438
2.0816e-02,0.0135625
2.0848e-02,0.0140313
2.0880e-02,0.014
2.0912e-02,0.0141875
2.0944e-02,0.013875
2.0976e-02,0.0140313
2.1008e-02,0.0136875
2.1040e-02,0.0129688
2.1072e-02,0.0131875
2.1104e-02,0.0137188
2.1136e-02,0.0140938
2.1168e-02,0.0139688
2.1200e-02,0.0140313
2.1232e-02,0.0140313
2.1264e-02,0.013875
2.1296e-02,0.0142188
2.1328e-02,0.014375
2.1360e-02,0.0142188
2.1392e-02,0.0140938
2.1424e-02,0.0141875
2.1456e-02,0.0139375
2.1488e-02,0.0135
2.1520e-02,0.0140938
2.1552e-02,0.0139688
2.1584e-02,0.0137188
2.1616e-02,0.0134063
2.1648e-02,0.0138438
2.1680e-02,0.0136563
2.1712e-02,0.0135625
2.1744e-02,0.0137813
2.1776e-02,0.014
2.1808e-02,0.0142813
2.1840e-02,0.0148125
2.1872e-02,0.0149688
2.1904e-02,0.0144063
2.1936e-02,0.0140938
2.1968e-02,0.0144063
2.2000e-02,0.0140938
2.2032e-02,0.0140313
2.2064e-02,0.0144375
2.2096e-02,0.0145313
2.2128e-02,0.0144063
2.2160e-02,0.0141563
2.2192e-02,0.0141563
2.2224e-02,0.0143438
2.2256e-02,0.0153125
2.2288e-02,0.0148125
2.2320e-02,0.0135625
2.2352e-02,0.014
2.2384e-02,0.013875
2.2416e-02,0.0142813
2.2448e-02,0.0142813
2.2480e-02,0.01375
2.2512e-02,0.0140938
2.2544e-02,0.0141563
2.2576e-02,0.0140938
2.2608e-02,0.0140625
2.2640e-02,0.014125
2.2672e-02,0.0140938
2.2704e-02,0.014125
2.2736e-02,0.0141563
2.2768e-02,0.0147813
2.2800e-02,0.0139063
2.2832e-02,0.014125
2.2864e-02,0.014625
2.2896e-02,0.0145938
2.2928e-02,0.0141563
2.2960e-02,0.0144375
2.2992e-02,0.0140313
2.3024e-02,0.0140313
2.3056e-02,0.0140938
2.3088e-02,0.0144688
2.3120e-02,0.0144688
2.3152e-02,0.0139688
2.3184e-02,0.014
2.3216e-02,0.0138438
2.3248e-02,0.0142188
2.3280e-02,0.0152813
2.3312e-02,0.015625
2.3344e-02,0.0154688
2.3376e-02,0.0150313
2.3408e-02,0.0152813
2.3440e-02,0.0149688
2.3472e-02,0.0153438
2.3504e-02,0.014125
2.3536e-02,0.0141563
2.3568e-02,0.014375
2.3600e-02,0.0148438
2.3632e-02,0.0149375
2.3664e-02,0.0155938
2.3696e-02,0.01625
2.3728e-02,0.0153438
2.3760e-02,0.0153125
2.3792e-02,0.01525
2.3824e-02,0.0148125
2.3856e-02,0.0150313
2.3888e-02,0.0152188
2.3920e-02,0.0164688
2.3952e-02,0.015
2.3984e-02,0.0145313
2.4016e-02,0.0149063
2.4048e-02,0.0145625
2.4080e-02,0.01425
2.4112e-02,0.0145313
2.4144e-02,0.0144063
2.4176e-02,0.0146563
2.4208e-02,0.014625
2.4240e-02,0.0148125
2.4272e-02,0.0146563
2.4304e-02,0.0149688
2.4336e-02,0.0147813
2.4368e-02,0.015
2.4400e-02,0.0147813
2.4432e-02,0.0154063
2.4464e-02,0.0160938
2.4496e-02,0.0164375
2.4528e-02,0.0170313
2.4560e-02,0.01625
2.4592e-02,0.016625
2.4624e-02,0.0152813
2.4656e-02,0.0151875
2.4688e-02,0.0153438
2.4720e-02,0.015
2.4752e-02,0.0155313
2.4784e-02,0.016
2.4816e-02,0.015875
2.4848e-02,0.015625
2.4880e-02,0.0156875
2.4912e-02,0.0177813
2.4944e-02,0.017875
2.4976e-02,0.0173125
2.5008e-02,0.017625
2.5040e-02,0.0166563
2.5072e-02,0.016625
2.5104e-02,0.0177188
2.5136e-02,0.017875
2.5168e-02,0.0166563
2.5200e-02,0.0170938
2.5232e-02,0.0181563
2.5264e-02,0.0184375
2.5296e-02,0.0194688
2.5328e-02,0.0192813
2.5360e-02,0.0185625
2.5392e-02,0.0191563
2.5424e-02,0.019625
2.5456e-02,0.0198438
2.5488e-02,0.02125
2.5520e-02,0.021125
2.5552e-02,0.0214063
2.5584e-02,0.0215313
2.5616e-02,0.020625
2.5648e-02,0.0214375
2.5680e-02,0.0219688
2.5712e-02,0.0208125
2.5744e-02,0.0194063
2.5776e-02,0.0193438
2.5808e-02,0.0197813
2.5840e-02,0.0197813
2.5872e-02,0.0186875
2.5904e-02,0.0190313
2.5936e-02,0.019875
2.5968e-02,0.0204688
2.6000e-02,0.019625
2.6032e-02,0.0193125
2.6064e-02,0.0190938
2.6096e-02,0.0196563
2.6128e-02,0.019375
2.6160e-02,0.0196563
2.6192e-02,0.0191563
2.6224e-02,0.0194688
2.6256e-02,0.0195
2.6288e-02,0.020125
2.6320e-02,0.021
2.6352e-02,0.0202813
2.6384e-02,0.0204688
2.6416e-02,0.0199688
2.6448e-02,0.0209063
2.6480e-02,0.021375
2.6512e-02,0.021625
2.6544e-02,0.0214375
2.6576e-02,0.0219375
2.6608e-02,0.0220938
2.6640e-02,0.0219063
2.6672e-02,0.02225
2.6704e-02,0.0234688
2.6736e-02,0.0241563
2.6768e-02,0.0250625
2.6800e-02,0.0258438
2.6832e-02,0.0260625
2.6864e-02,0.0268125
2.6896e-02,0.0286563
2.6928e-02,0.0303125
2.6960e-02,0.0319688
2.6992e-02,0.0329688
2.7024e-02,0.0324375
2.7056e-02,0.0328125
2.7088e-02,0.0345625
2.7120e-02,0.03475
2.7152e-02,0.0364063
2.7184e-02,0.0380938
2.7216e-02,0.0407188
2.7248e-02,0.0424375
2.7280e-02,0.0440313
2.7312e-02,0.0476875
2.7344e-02,0.0500625
2.7376e-02,0.0501563
2.7408e-02,0.0510313
2.7440e-02,0.0514375
2.7472e-02,0.0544688
2.7504e-02,0.05825
2.7536e-02,0.0619688
2.7568e-02,0.0651563
2.7600e-02,0.0667188
2.7632e-02,0.0681563
2.7664e-02,0.0697188
2.7696e-02,0.0702813
2.7728e-02,0.0717813
2.7760e-02,0.0744063
2.7792e-02,0.0760625
2.7824e-02,0.0776563
2.7856e-02,0.0798125
2.7888e-02,0.0805313
2.7920e-02,0.0814688
2.7952e-02,0.080625
2.7984e-02,0.0810313
2.8016e-02,0.0816875
2.8048e-02,0.0825625
2.8080e-02,0.084875
2.8112e-02,0.0864688
2.8144e-02,0.0869063
2.8176e-02,0.0883125
2.8208e-02,0.0910938
2.8240e-02,0.0941875
2.8272e-02,0.0956875
2.8304e-02,0.0974063
2.8336e-02,0.102531
2.8368e-02,0.10725
2.8400e-02,0.112938
2.8432e-02,0.118875
2.8464e-02,0.123938
2.8496e-02,0.127125
2.8528e-02,0.128406
2.8560e-02,0.131438
2.8592e-02,0.138531
2.8624e-02,0.14575
2.8656e-02,0.151969
2.8688e-02,0.154469
2.8720e-02,0.160156
2.8752e-02,0.165031
2.8784e-02,0.171375
2.8816e-02,0.171531
2.8848e-02,0.168188
2.8880e-02,0.170531
2.8912e-02,0.17275
2.8944e-02,0.172344
2.8976e-02,0.16925
2.9008e-02,0.16625
2.9040e-02,0.16325
2.9072e-02,0.165938
2.9104e-02,0.167125
2.9136e-02,0.166563
2.9168e-02,0.16275
2.9200e-02,0.158813
2.9232e-02,0.154
2.9264e-02,0.148875
2.9296e-02,0.146281
2.9328e-02,0.147375
2.9360e-02,0.1495
2.9392e-02,0.152281
2.9424e-02,0.156844
2.9456e-02,0.158906
2.9488e-02,0.160844
2.9520e-02,0.163313
2.9552e-02,0.167469
2.9584e-02,0.174469
2.9616e-02,0.184188
2.9648e-02,0.1955
2.9680e-02,0.20375
2.9712e-02,0.213406
2.9744e-02,0.220438
2.9776e-02,0.226156
2.9808e-02,0.237656
2.9840e-02,0.253156
2.9872e-02,0.2745
2.9904e-02,0.292625
2.9936e-02,0.312563
2.9968e-02,0.337438
3.0000e-02,0.358281
3.0032e-02,0.385875
3.0064e-02,0.4105
3.0096e-02,0.4355
3.0128e-02,0.465406
3.0160e-02,0.49075
3.0192e-02,0.532813
3.0224e-02,0.570875
3.0256e-02,0.6085
3.0288e-02,0.649188
3.0320e-02,0.704063
3.0352e-02,0.753156
3.0384e-02,0.78975
3.0416e-02,0.832875
3.0448e-02,0.885813
3.0480e-02,0.914719
3.0512e-02,0.954906
3.0544e-02,0.994469
3.0576e-02,1.02559
3.0608e-02,1.074
3.0640e-02,1.10491
3.0672e-02,1.14353
3.0704e-02,1.17444
3.0736e-02,1.19447
3.0768e-02,1.21138
3.0800e-02,1.22694
3.0832e-02,1.24822
3.0864e-02,1.25897
3.0896e-02,1.26609
3.0928e-02,1.25619
3.0960e-02,1.258
3.0992e-02,1.26103
3.1024e-02,1.25953
3.1056e-02,1.26853
3.1088e-02,1.26913
3.1120e-02,1.25728
3.1152e-02,1.2375
3.1184e-02,1.22409
3.1216e-02,1.20791
3.1248e-02,1.17809
3.1280e-02,1.15303
3.1312e-02,1.12859
3.1344e-02,1.09506
3.1376e-02,1.05975
3.1408e-02,0.998156
3.1440e-02,0.948188
3.1472e-02,0.888344
3.1504e-02,0.83725
3.1536e-02,0.778281
3.1568e-02,0.725563
3.1600e-02,0.6745
3.1632e-02,0.627688
3.1664e-02,0.572531
3.1696e-02,0.523063
3.1728e-02,0.474406
3.1760e-02,0.419
3.1792e-02,0.373906
3.1824e-02,0.336563
3.1856e-02,0.302219
3.1888e-02,0.273938
3.1920e-02,0.250594
3.1952e-02,0.229688
3.1984e-02,0.21175
3.2016e-02,0.194875
3.2048e-02,0.180281
3.2080e-02,0.171063
3.2112e-02,0.165344
3.2144e-02,0.157938
3.2176e-02,0.151875
3.2208e-02,0.147625
3.2240e-02,0.142594
3.2272e-02,0.138469
3.2304e-02,0.135188
3.2336e-02,0.137781
3.2368e-02,0.137
3.2400e-02,0.13275
3.2432e-02,0.13125
3.2464e-02,0.131
3.2496e-02,0.131531
3.2528e-02,0.133781
3.2560e-02,0.132281
3.2592e-02,0.129875
3.2624e-02,0.129094
3.2656e-02,0.123156
3.2688e-02,0.117625
3.2720e-02,0.11425
3.2752e-02,0.112219
3.2784e-02,0.110344
3.2816e-02,0.108938
3.2848e-02,0.106813
3.2880e-02,0.104969
3.2912e-02,0.0995625
3.2944e-02,0.0954688
3.2976e-02,0.0916875
3.3008e-02,0.0846875
3.3040e-02,0.07825
3.3072e-02,0.0765313
3.3104e-02,0.0739375
3.3136e-02,0.0726875
3.3168e-02,0.0700625
3.3200e-02,0.0695938
3.3232e-02,0.0670625
3.3264e-02,0.0628125
3.3296e-02,0.0579688
3.3328e-02,0.0542188
3.3360e-02,0.0533438
3.3392e-02,0.0512188
3.3424e-02,0.0499688
3.3456e-02,0.0487813
3.3488e-02,0.047375
3.3520e-02,0.0481875
3.3552e-02,0.047625
3.3584e-02,0.0459688
3.3616e-02,0.0432188
3.3648e-02,0.0424688
3.3680e-02,0.0400625
3.3712e-02,0.0395938
3.3744e-02,0.0383125
3.3776e-02,0.0384688
3.3808e-02,0.0358438
3.3840e-02,0.0348438
3.3872e-02,0.034125
3.3904e-02,0.032375
3.3936e-02,0.0321563
3.3968e-02,0.0300625
3.4000e-02,0.0303125
3.4032e-02,0.0295313
3.4064e-02,0.0284688
3.4096e-02,0.0267188
3.4128e-02,0.0260625
3.4160e-02,0.0249688
3.4192e-02,0.0235625
3.4224e-02,0.0230625
3.4256e-02,0.022375
3.4288e-02,0.0214375
3.4320e-02,0.0215313
3.4352e-02,0.0206563
3.4384e-02,0.0205938
3.4416e-02,0.0192188
3.4448e-02,0.0182813
3.4480e-02,0.0180625
3.4512e-02,0.0192813
3.4544e-02,0.0196875
3.4576e-02,0.0199375
3.4608e-02,0.01975
3.4640e-02,0.0197188
3.4672e-02,0.0191875
3.4704e-02,0.0189688
3.4736e-02,0.018125
3.4768e-02,0.018125
3.4800e-02,0.018625
3.4832e-02,0.0195625
3.4864e-02,0.01825
3.4896e-02,0.0182813
3.4928e-02,0.0181875
3.4960e-02,0.0187188
3.4992e-02,0.018
3.5024e-02,0.0179063
3.5056e-02,0.018
3.5088e-02,0.0179688
3.5120e-02,0.0184688
3.5152e-02,0.0185938
3.5184e-02,0.0185625
3.5216e-02,0.0185625
3.5248e-02,0.0185938
3.5280e-02,0.01925
3.5312e-02,0.019
3.5344e-02,0.019125
3.5376e-02,0.0190313
3.5408e-02,0.0199063
3.5440e-02,0.0194688
3.5472e-02,0.0193438
3.5504e-02,0.01925
3.5536e-02,0.0195
3.5568e-02,0.0202813
3.5600e-02,0.020625
3.5632e-02,0.0205625
3.5664e-02,0.021375
3.5696e-02,0.020375
3.5728e-02,0.0215625
3.5760e-02,0.022375
3.5792e-02,0.0230313
3.5824e-02,0.0235
3.5856e-02,0.025375
3.5888e-02,0.02575
3.5920e-02,0.0262188
3.5952e-02,0.025875
3.5984e-02,0.0270938
3.6016e-02,0.0286875
3.6048e-02,0.0296563
3.6080e-02,0.0301563
3.6112e-02,0.0311875
3.6144e-02,0.0337188
3.6176e-02,0.0346875
3.6208e-02,0.0363438
3.6240e-02,0.0358125
3.6272e-02,0.0374375
3.6304e-02,0.0383438
3.6336e-02,0.0383438
3.6368e-02,0.0395625
3.6400e-02,0.0415
3.6432e-02,0.0429688
3.6464e-02,0.0453125
3.6496e-02,0.0475
3.6528e-02,0.0478125
3.6560e-02,0.0476563
3.6592e-02,0.0474375
3.6624e-02,0.0481563
3.6656e-02,0.0480625
3.6688e-02,0.0481875
3.6720e-02,0.0460938
3.6752e-02,0.0436875
3.6784e-02,0.0418125
3.6816e-02,0.0408125
3.6848e-02,0.0385313
3.6880e-02,0.0381875
3.6912e-02,0.0367813
3.6944e-02,0.03575
3.6976e-02,0.0334688
3.7008e-02,0.0315625
3.7040e-02,0.0304375
3.7072e-02,0.0289063
3.7104e-02,0.0262188
3.7136e-02,0.0251875
3.7168e-02,0.0244063
3.7200e-02,0.0220938
3.7232e-02,0.0215625
3.7264e-02,0.0210313
3.7296e-02,0.0188125
3.7328e-02,0.0180313
3.7360e-02,0.0175313
3.7392e-02,0.0160313
3.7424e-02,0.014875
3.7456e-02,0.015125
3.7488e-02,0.013875
3.7520e-02,0.0147188
3.7552e-02,0.0139688
3.7584e-02,0.014125
3.7616e-02,0.014
3.7648e-02,0.0139063
3.7680e-02,0.01375
3.7712e-02,0.0140938
3.7744e-02,0.0146563
3.7776e-02,0.0147813
3.7808e-02,0.0140625
3.7840e-02,0.01425
3.7872e-02,0.0144375
3.7904e-02,0.0146563
3.7936e-02,0.0139063
3.7968e-02,0.0140625
3.8000e-02,0.0142188
3.8032e-02,0.0141563
3.8064e-02,0.0141563
3.8096e-02,0.0139063
3.8128e-02,0.0142188
3.8160e-02,0.0145625
3.8192e-02,0.0133438
3.8224e-02,0.014125
3.8256e-02,0.014375
3.8288e-02,0.0143438
3.8320e-02,0.0141563
3.8352e-02,0.0142188
3.8384e-02,0.0142813
3.8416e-02,0.0141875
3.8448e-02,0.0141563
3.8480e-02,0.013875
3.8512e-02,0.0139688
3.8544e-02,0.0139688
3.8576e-02,0.0139375
3.8608e-02,0.0136875
3.8640e-02,0.0136563
3.8672e-02,0.0133438
3.8704e-02,0.014
3.8736e-02,0.0140313
3.8768e-02,0.0139688
3.8800e-02,0.0140625
3.8832e-02,0.014
3.8864e-02,0.0142188
3.8896e-02,0.0141563
3.8928e-02,0.0148125
3.8960e-02,0.0145313
3.8992e-02,0.0150625
3.9024e-02,0.0142813
3.9056e-02,0.014625
3.9088e-02,0.015
3.9120e-02,0.0146875
3.9152e-02,0.0142813
3.9184e-02,0.0136875
3.9216e-02,0.0126875
3.9248e-02,0.0135
3.9280e-02,0.0137813
3.9312e-02,0.0134375
3.9344e-02,0.0136563
3.9376e-02,0.0131563
3.9408e-02,0.013375
3.9440e-02,0.0128438
3.9472e-02,0.0135938
3.9504e-02,0.0142188
3.9536e-02,0.01425
3.9568e-02,0.014
3.9600e-02,0.0140938
3.9632e-02,0.0140313
3.9664e-02,0.0133438
3.9696e-02,0.0139688
3.9728e-02,0.013875
3.9760e-02,0.01425
3.9792e-02,0.0141563
3.9824e-02,0.0148125
3.9856e-02,0.0151563
3.9888e-02,0.0145313
3.9920e-02,0.0142813
3.9952e-02,0.0142813
3.9984e-02,0.0140938
4.0016e-02,0.014
4.0048e-02,0.0139688
4.0080e-02,0.0139063
4.0112e-02,0.0140313
4.0144e-02,0.0139688
4.0176e-02,0.0140313
4.0208e-02,0.0140313
4.0240e-02,0.0140938
4.0272e-02,0.014125
4.0304e-02,0.0140938
4.0336e-02,0.013
4.0368e-02,0.0136875
4.0400e-02,0.0135625
4.0432e-02,0.0138438
4.0464e-02,0.0138125
4.0496e-02,0.0134375
4.0528e-02,0.013625
4.0560e-02,0.0141875
4.0592e-02,0.0147813
4.0624e-02,0.0145
4.0656e-02,0.013625
4.0688e-02,0.0142188
4.0720e-02,0.0134063
4.0752e-02,0.0136875
4.0784e-02,0.0135938
4.0816e-02,0.0141563
4.0848e-02,0.0141563
4.0880e-02,0.0133438
4.0912e-02,0.012875
4.0944e-02,0.0135
4.0976e-02,0.013
4.1008e-02,0.0128125
4.1040e-02,0.013625
4.1072e-02,0.0140938
4.1104e-02,0.0141875
4.1136e-02,0.014125
4.1168e-02,0.0140313
4.1200e-02,0.0134375
4.1232e-02,0.0134063
4.1264e-02,0.0132813
4.1296e-02,0.0139063
4.1328e-02,0.0142188
4.1360e-02,0.0140938
4.1392e-02,0.0140313
4.1424e-02,0.014
4.1456e-02,0.0130625
4.1488e-02,0.0142813
4.1520e-02,0.0142813
4.1552e-02,0.0137813
4.1584e-02,0.014125
4.1616e-02,0.0142188
4.1648e-02,0.0136563
4.1680e-02,0.0138125
4.1712e-02,0.0140313
4.1744e-02,0.0140313
4.1776e-02,0.0140313
4.1808e-02,0.0140625
4.1840e-02,0.013125
4.1872e-02,0.0121875
4.1904e-02,0.013
4.1936e-02,0.0140313
4.1968e-02,0.0142188
4.2000e-02,0.014625
4.2032e-02,0.015625
4.2064e-02,0.014875
4.2096e-02,0.014125
4.2128e-02,0.0149375
4.2160e-02,0.0148438
4.2192e-02,0.0159063
4.2224e-02,0.0151875
4.2256e-02,0.0143438
4.2288e-02,0.0142188
4.2320e-02,0.014125
4.2352e-02,0.0133438
4.2384e-02,0.0121875
4.2416e-02,0.013
4.2448e-02,0.0127188
4.2480e-02,0.014125
4.2512e-02,0.0135625
4.2544e-02,0.0138438
4.2576e-02,0.0149375
4.2608e-02,0.01475
4.2640e-02,0.0146563
4.2672e-02,0.0140938
4.2704e-02,0.0140625
4.2736e-02,0.0140625
4.2768e-02,0.0141875
4.2800e-02,0.0145313
4.2832e-02,0.0144375
4.2864e-02,0.0143438
4.2896e-02,0.0142188
4.2928e-02,0.014
4.2960e-02,0.0140313
4.2992e-02,0.0140938
4.3024e-02,0.0140313
4.3056e-02,0.0136875
4.3088e-02,0.013125
4.3120e-02,0.0138438
4.3152e-02,0.0136563
4.3184e-02,0.0139688
4.3216e-02,0.01375
4.3248e-02,0.0134375
4.3280e-02,0.01325
4.3312e-02,0.014125
4.3344e-02,0.0140938
4.3376e-02,0.0140625
4.3408e-02,0.0135
4.3440e-02,0.0137813
4.3472e-02,0.0130625
4.3504e-02,0.0139688
4.3536e-02,0.0138438
4.3568e-02,0.0128438
4.3600e-02,0.013375
4.3632e-02,0.0134063
4.3664e-02,0.0139688
4.3696e-02,0.014375
4.3728e-02,0.0147813
4.3760e-02,0.0149688
4.3792e-02,0.0145938
4.3824e-02,0.014125
4.3856e-02,0.0140625
4.3888e-02,0.0140625
4.3920e-02,0.0140625
4.3952e-02,0.0139063
4.3984e-02,0.0151563
4.4016e-02,0.0155938
4.4048e-02,0.0150625
4.4080e-02,0.0140313
4.4112e-02,0.0140625
4.4144e-02,0.0140313
4.4176e-02,0.0141563
4.4208e-02,0.0145625
4.4240e-02,0.01475
4.4272e-02,0.0145938
4.4304e-02,0.0144063
4.4336e-02,0.0145
4.4368e-02,0.0152188
4.4400e-02,0.0148125
4.4432e-02,0.014875
4.4464e-02,0.0142188
4.4496e-02,0.0142188
4.4528e-02,0.0141563
4.4560e-02,0.0143125
4.4592e-02,0.0151563
4.4624e-02,0.0144688
4.4656e-02,0.0153125
4.4688e-02,0.0163438
4.4720e-02,0.0149375
4.4752e-02,0.0148438
4.4784e-02,0.01525
4.4816e-02,0.016
4.4848e-02,0.0165625
4.4880e-02,0.0159375
4.4912e-02,0.0157188
4.4944e-02,0.0144063
4.4976e-02,0.0142813
4.5008e-02,0.0157188
4.5040e-02,0.0164375
4.5072e-02,0.0150625
4.5104e-02,0.0149375
4.5136e-02,0.0150938
4.5168e-02,0.0146563
4.5200e-02,0.0143438
4.5232e-02,0.01425
4.5264e-02,0.0150625
4.5296e-02,0.0144688
4.5328e-02,0.01425
4.5360e-02,0.0148125
4.5392e-02,0.0150938
4.5424e-02,0.0152188
4.5456e-02,0.0157813
4.5488e-02,0.0160938
4.5520e-02,0.0164375
4.5552e-02,0.0173125
4.5584e-02,0.017
4.5616e-02,0.0173438
4.5648e-02,0.0172188
4.5680e-02,0.0169375
4.5712e-02,0.0180313
4.5744e-02,0.0177813
4.5776e-02,0.0169063
4.5808e-02,0.0176563
4.5840e-02,0.0179375
4.5872e-02,0.0179375
4.5904e-02,0.0182813
4.5936e-02,0.017625
4.5968e-02,0.0180313
4.6000e-02,0.0184375
4.6032e-02,0.0202188
4.6064e-02,0.0209375
4.6096e-02,0.0206875
4.6128e-02,0.0194063
4.6160e-02,0.0192813
4.6192e-02,0.0189375
4.6224e-02,0.0194375
4.6256e-02,0.0195313
4.6288e-02,0.0194063
4.6320e-02,0.0188125
4.6352e-02,0.0191875
4.6384e-02,0.0196563
4.6416e-02,0.0194688
4.6448e-02,0.0201563
4.6480e-02,0.0207813
4.6512e-02,0.0209375
4.6544e-02,0.0204063
4.6576e-02,0.0211563
4.6608e-02,0.0210313
4.6640e-02,0.0210938
4.6672e-02,0.0205
4.6704e-02,0.01875
4.6736e-02,0.0184375
4.6768e-02,0.0181563
4.6800e-02,0.0180625
4.6832e-02,0.0180938
4.6864e-02,0.0174688
4.6896e-02,0.0180313
4.6928e-02,0.0180938
4.6960e-02,0.0186875
4.6992e-02,0.0185938
4.7024e-02,0.018625
4.7056e-02,0.0191563
4.7088e-02,0.0202813
4.7120e-02,0.0205938
4.7152e-02,0.020125
4.7184e-02,0.0205625
4.7216e-02,0.021375
4.7248e-02,0.0220625
4.7280e-02,0.0229063
4.7312e-02,0.0232188
4.7344e-02,0.0225
4.7376e-02,0.022625
4.7408e-02,0.0236875
4.7440e-02,0.0249063
4.7472e-02,0.0258438
4.7504e-02,0.0264688
4.7536e-02,0.0264063
4.7568e-02,0.0277813
4.7600e-02,0.028
4.7632e-02,0.0298125
4.7664e-02,0.0312813
4.7696e-02,0.0342188
4.7728e-02,0.0347813
4.7760e-02,0.03625
4.7792e-02,0.0373438
4.7824e-02,0.0389375
4.7856e-02,0.0400313
4.7888e-02,0.0430938
4.7920e-02,0.045375
4.7952e-02,0.048
4.7984e-02,0.0514688
4.8016e-02,0.0527188
4.8048e-02,0.0552188
4.8080e-02,0.056
4.8112e-02,0.0579688
4.8144e-02,0.0615313
4.8176e-02,0.0635938
4.8208e-02,0.064375
4.8240e-02,0.066625
4.8272e-02,0.06975
4.8304e-02,0.073875
4.8336e-02,0.078
4.8368e-02,0.0786563
4.8400e-02,0.0792188
4.8432e-02,0.0800938
4.8464e-02,0.079625
4.8496e-02,0.0813438
4.8528e-02,0.0826875
4.8560e-02,0.0825313
4.8592e-02,0.0825
4.8624e-02,0.0860313
4.8656e-02,0.08725
4.8688e-02,0.0917813
4.8720e-02,0.0937188
4.8752e-02,0.0954063
4.8784e-02,0.0986563
4.8816e-02,0.102281
4.8848e-02,0.104594
4.8880e-02,0.109469
4.8912e-02,0.112844
4.8944e-02,0.116625
4.8976e-02,0.122906
4.9008e-02,0.133313
4.9040e-02,0.139125
4.9072e-02,0.145219
4.9104e-02,0.151719
4.9136e-02,0.154219
4.9168e-02,0.155313
4.9200e-02,0.158344
4.9232e-02,0.162531
4.9264e-02,0.165
4.9296e-02,0.164125
4.9328e-02,0.163563
4.9360e-02,0.16175
4.9392e-02,0.159563
4.9424e-02,0.161156
4.9456e-02,0.159938
4.9488e-02,0.160625
4.9520e-02,0.157344
4.9552e-02,0.153
4.9584e-02,0.151156
4.9616e-02,0.145813
4.9648e-02,0.140906
4.9680e-02,0.137875
4.9712e-02,0.13575
4.9744e-02,0.135813
4.9776e-02,0.135406
4.9808e-02,0.135125
4.9840e-02,0.137563
4.9872e-02,0.139094
4.9904e-02,0.144781
4.9936e-02,0.153438
4.9968e-02,0.159938
5.0000e-02,0.166188
5.0032e-02,0.176656
5.0064e-02,0.186063
5.0096e-02,0.19625
5.0128e-02,0.207719
5.0160e-02,0.223031
5.0192e-02,0.241094
5.0224e-02,0.261781
5.0256e-02,0.285531
5.0288e-02,0.305813
5.0320e-02,0.33325
5.0352e-02,0.364125
5.0384e-02,0.396938
5.0416e-02,0.430094
5.0448e-02,0.456188
5.0480e-02,0.482469
5.0512e-02,0.525563
5.0544e-02,0.560844
5.0576e-02,0.593031
5.0608e-02,0.646625
5.0640e-02,0.699531
5.0672e-02,0.759656
5.0704e-02,0.822625
5.0736e-02,0.857469
5.0768e-02,0.90425
5.0800e-02,0.943594
5.0832e-02,1.00078
5.0864e-02,1.05072
5.0896e-02,1.09956
5.0928e-02,1.11638
5.0960e-02,1.15413
5.0992e-02,1.17331
5.1024e-02,1.20516
5.1056e-02,1.21334
5.1088e-02,1.21831
5.1120e-02,1.21291
5.1152e-02,1.21713
5.1184e-02,1.23459
5.1216e-02,1.24647
5.1248e-02,1.24103
5.1280e-02,1.24197
5.1312e-02,1.24981
5.1344e-02,1.24328
5.1376e-02,1.24319
5.1408e-02,1.23006
5.1440e-02,1.20747
5.1472e-02,1.18522
5.1504e-02,1.16466
5.1536e-02,1.14075
5.1568e-02,1.09088
5.1600e-02,1.038
5.1632e-02,0.987156
5.1664e-02,0.931563
5.1696e-02,0.873969
5.1728e-02,0.818406
5.1760e-02,0.745406
5.1792e-02,0.687688
5.1824e-02,0.632813
5.1856e-02,0.578125
5.1888e-02,0.514438
5.1920e-02,0.453688
5.1952e-02,0.400156
5.1984e-02,0.355625
5.2016e-02,0.316031
5.2048e-02,0.281406
5.2080e-02,0.253688
5.2112e-02,0.230469
5.2144e-02,0.209875
5.2176e-02,0.191969
5.2208e-02,0.179719
5.2240e-02,0.167938
5.2272e-02,0.162438
5.2304e-02,0.15625
5.2336e-02,0.150625
5.2368e-02,0.146406
5.2400e-02,0.145656
5.2432e-02,0.144219
5.2464e-02,0.140094
5.2496e-02,0.13675
5.2528e-02,0.137469
5.2560e-02,0.13775
5.2592e-02,0.140781
5.2624e-02,0.13875
5.2656e-02,0.134844
5.2688e-02,0.134469
5.2720e-02,0.131531
5.2752e-02,0.1275
5.2784e-02,0.126031
5.2816e-02,0.121781
5.2848e-02,0.118344
5.2880e-02,0.112313
5.2912e-02,0.108063
5.2944e-02,0.104875
5.2976e-02,0.100406
5.3008e-02,0.0953125
5.3040e-02,0.0913438
5.3072e-02,0.086
5.3104e-02,0.0805313
5.3136e-02,0.0747813
5.3168e-02,0.0724063
5.3200e-02,0.0694063
5.3232e-02,0.0661563
5.3264e-02,0.0644688
5.3296e-02,0.0622188
5.3328e-02,0.05875
5.3360e-02,0.05625
5.3392e-02,0.054875
5.3424e-02,0.053375
5.3456e-02,0.0519375
5.3488e-02,0.0488125
5.3520e-02,0.0460938
5.3552e-02,0.0452188
5.3584e-02,0.0445938
5.3616e-02,0.0424063
5.3648e-02,0.041875
5.3680e-02,0.04025
5.3712e-02,0.038375
5.3744e-02,0.0378438
5.3776e-02,0.03725
5.3808e-02,0.0364375
5.3840e-02,0.0350938
5.3872e-02,0.0338125
5.3904e-02,0.0314063
5.3936e-02,0.0299688
5.3968e-02,0.0286563
5.4000e-02,0.0274688
5.4032e-02,0.0271563
5.4064e-02,0.0265
5.4096e-02,0.0258438
5.4128e-02,0.0249063
5.4160e-02,0.0228438
5.4192e-02,0.0223438
5.4224e-02,0.0218438
5.4256e-02,0.0205313
5.4288e-02,0.0204063
5.4320e-02,0.0206875
5.4352e-02,0.0195938
5.4384e-02,0.0187188
5.4416e-02,0.0188125
5.4448e-02,0.018125
5.4480e-02,0.018
5.4512e-02,0.018
5.4544e-02,0.018625
5.4576e-02,0.018
5.4608e-02,0.0179688
5.4640e-02,0.0180625
5.4672e-02,0.0180625
5.4704e-02,0.0182188
5.4736e-02,0.0180313
5.4768e-02,0.0180938
5.4800e-02,0.0179063
5.4832e-02,0.0180938
5.4864e-02,0.017875
5.4896e-02,0.0174063
5.4928e-02,0.0181563
5.4960e-02,0.0184063
5.4992e-02,0.0185
5.5024e-02,0.0182813
5.5056e-02,0.0179063
5.5088e-02,0.0178438
5.5120e-02,0.0177813
5.5152e-02,0.0181563
5.5184e-02,0.0182813
5.5216e-02,0.019
5.5248e-02,0.019875
5.5280e-02,0.0196875
5.5312e-02,0.0199375
5.5344e-02,0.0198125
5.5376e-02,0.01975
5.5408e-02,0.0191563
5.5440e-02,0.019375
5.5472e-02,0.0206875
5.5504e-02,0.021375
5.5536e-02,0.022125
5.5568e-02,0.0223125
5.5600e-02,0.0223438
5.5632e-02,0.0244063
5.5664e-02,0.026125
5.5696e-02,0.0268125
5.5728e-02,0.0265938
5.5760e-02,0.0265
5.5792e-02,0.02825
5.5824e-02,0.02975
5.5856e-02,0.0309688
5.5888e-02,0.0316875
5.5920e-02,0.0343438
5.5952e-02,0.0370625
5.5984e-02,0.039
5.6016e-02,0.0384063
5.6048e-02,0.0399063
5.6080e-02,0.0413438
5.6112e-02,0.0431563
5.6144e-02,0.0439063
5.6176e-02,0.0438125
5.6208e-02,0.0448125
5.6240e-02,0.0444375
5.6272e-02,0.0455
5.6304e-02,0.0461875
5.6336e-02,0.0464688
5.6368e-02,0.04725
5.6400e-02,0.0474063
5.6432e-02,0.0457188
5.6464e-02,0.044625
5.6496e-02,0.0430625
5.6528e-02,0.041375
5.6560e-02,0.0404375
5.6592e-02,0.0378438
5.6624e-02,0.036625
5.6656e-02,0.0347188
5.6688e-02,0.0335625
5.6720e-02,0.032625
5.6752e-02,0.0300938
5.6784e-02,0.02775
5.6816e-02,0.0257188
5.6848e-02,0.0240938
5.6880e-02,0.0220938
5.6912e-02,0.0219375
5.6944e-02,0.0205625
5.6976e-02,0.019625
5.7008e-02,0.0194688
5.7040e-02,0.018
5.7072e-02,0.018125
5.7104e-02,0.0170938
5.7136e-02,0.016125
5.7168e-02,0.01525
5.7200e-02,0.0157188
5.7232e-02,0.01575
5.7264e-02,0.0149063
5.7296e-02,0.0143438
5.7328e-02,0.01475
5.7360e-02,0.014125
5.7392e-02,0.0142188
5.7424e-02,0.0144375
5.7456e-02,0.0150625
5.7488e-02,0.0143438
5.7520e-02,0.0149688
5.7552e-02,0.01425
5.7584e-02,0.0142188
5.7616e-02,0.0141563
5.7648e-02,0.014
5.7680e-02,0.0140313
5.7712e-02,0.0138438
5.7744e-02,0.0134063
5.7776e-02,0.013625
5.7808e-02,0.0139688
5.7840e-02,0.0139063
5.7872e-02,0.0139063
5.7904e-02,0.0138438
5.7936e-02,0.0133438
5.7968e-02,0.0137188
5.8000e-02,0.0140625
5.8032e-02,0.0130313
5.8064e-02,0.0133125
5.8096e-02,0.0125938
5.8128e-02,0.0124688
5.8160e-02,0.0125625
5.8192e-02,0.0130938
5.8224e-02,0.0140313
5.8256e-02,0.0140938
5.8288e-02,0.0134688
5.8320e-02,0.013375
5.8352e-02,0.0133438
5.8384e-02,0.01425
5.8416e-02,0.014375
5.8448e-02,0.0142188
5.8480e-02,0.0142813
5.8512e-02,0.013625
5.8544e-02,0.0141563
5.8576e-02,0.0142188
5.8608e-02,0.0142188
5.8640e-02,0.0141563
5.8672e-02,0.013875
5.8704e-02,0.0141563
5.8736e-02,0.0145
5.8768e-02,0.0149063
5.8800e-02,0.0144375
5.8832e-02,0.0140938
5.8864e-02,0.0139375
5.8896e-02,0.0140313
5.8928e-02,0.0140625
5.8960e-02,0.0140625
5.8992e-02,0.0141563
5.9024e-02,0.0142188
5.9056e-02,0.0142813
5.9088e-02,0.014125
5.9120e-02,0.014125
5.9152e-02,0.013875
5.9184e-02,0.0136563
5.9216e-02,0.0142188
5.9248e-02,0.0143438
5.9280e-02,0.0143438
5.9312e-02,0.0147188
5.9344e-02,0.0147813
5.9376e-02,0.01425
5.9408e-02,0.0140313
5.9440e-02,0.0129063
5.9472e-02,0.0133438
5.9504e-02,0.014
5.9536e-02,0.0136563
5.9568e-02,0.0135938
5.9600e-02,0.0141563
5.9632e-02,0.014125
5.9664e-02,0.0140938
5.9696e-02,0.0140938
5.9728e-02,0.014375
5.9760e-02,0.0140313
5.9792e-02,0.0140938
5.9824e-02,0.014125
5.9856e-02,0.0137813
5.9888e-02,0.0128438
5.9920e-02,0.0130938
5.9952e-02,0.0133438
5.9984e-02,0.0130938
6.0016e-02,0.0132813
6.0048e-02,0.0144063
6.0080e-02,0.0145313
6.0112e-02,0.0144063
6.0144e-02,0.014375
6.0176e-02,0.0140938
6.0208e-02,0.014125
6.0240e-02,0.0133438
6.0272e-02,0.0128125
6.0304e-02,0.0122188
6.0336e-02,0.0135313
6.0368e-02,0.0130313
6.0400e-02,0.0140313
6.0432e-02,0.0140313
6.0464e-02,0.0142813
6.0496e-02,0.014375
6.0528e-02,0.0136563
6.0560e-02,0.0143125
6.0592e-02,0.0138125
6.0624e-02,0.0141875
6.0656e-02,0.013
6.0688e-02,0.0133438
6.0720e-02,0.0140625
6.0752e-02,0.0137188
6.0784e-02,0.0137188
6.0816e-02,0.0142188
6.0848e-02,0.0141563
6.0880e-02,0.0137188
6.0912e-02,0.014
6.0944e-02,0.0136875
6.0976e-02,0.0140938
6.1008e-02,0.0140938
6.1040e-02,0.014
6.1072e-02,0.0133438
6.1104e-02,0.0134063
6.1136e-02,0.014125
6.1168e-02,0.0137188
6.1200e-02,0.0139688
6.1232e-02,0.0140625
6.1264e-02,0.0141875
6.1296e-02,0.0141875
6.1328e-02,0.0141875
6.1360e-02,0.014
6.1392e-02,0.0142188
6.1424e-02,0.0143125
6.1456e-02,0.0144063
6.1488e-02,0.0141563
6.1520e-02,0.0143438
6.1552e-02,0.0140938
6.1584e-02,0.0140625
6.1616e-02,0.0140313
6.1648e-02,0.01375
6.1680e-02,0.013875
6.1712e-02,0.0140313
6.1744e-02,0.0139688
6.1776e-02,0.0137188
6.1808e-02,0.0142188
6.1840e-02,0.0140938
6.1872e-02,0.0140938
6.1904e-02,0.0143438
6.1936e-02,0.0140938
6.1968e-02,0.014
6.2000e-02,0.0145313
6.2032e-02,0.014375
6.2064e-02,0.0142813
6.2096e-02,0.0142813
6.2128e-02,0.014375
6.2160e-02,0.0149375
6.2192e-02,0.0147188
6.2224e-02,0.0144688
6.2256e-02,0.0145
6.2288e-02,0.014125
6.2320e-02,0.0134375
6.2352e-02,0.0124375
6.2384e-02,0.0130625
6.2416e-02,0.0139688
6.2448e-02,0.0148125
6.2480e-02,0.0144688
6.2512e-02,0.0144063
6.2544e-02,0.014
6.2576e-02,0.0139375
6.2608e-02,0.0135625
6.2640e-02,0.0135
6.2672e-02,0.0138438
6.2704e-02,0.0135938
6.2736e-02,0.013875
6.2768e-02,0.0140313
6.2800e-02,0.0140938
6.2832e-02,0.0149375
6.2864e-02,0.0147813
6.2896e-02,0.0145
6.2928e-02,0.0153125
6.2960e-02,0.0153125
6.2992e-02,0.0143438
6.3024e-02,0.01425
6.3056e-02,0.014375
6.3088e-02,0.0144688
6.3120e-02,0.0146875
6.3152e-02,0.0145
6.3184e-02,0.014
6.3216e-02,0.0141563
6.3248e-02,0.0139688
6.3280e-02,0.0144375
6.3312e-02,0.014375
6.3344e-02,0.0141875
6.3376e-02,0.01425
6.3408e-02,0.014875
6.3440e-02,0.0140313
6.3472e-02,0.0150313
6.3504e-02,0.0147188
6.3536e-02,0.014625
6.3568e-02,0.0143438
6.3600e-02,0.0138125
6.3632e-02,0.0141875
6.3664e-02,0.0143125
6.3696e-02,0.01425
6.3728e-02,0.0154375
6.3760e-02,0.01475
6.3792e-02,0.0149063
6.3824e-02,0.0141875
6.3856e-02,0.0143125
6.3888e-02,0.0147813
6.3920e-02,0.014125
6.3952e-02,0.0149688
6.3984e-02,0.01475
6.4016e-02,0.0147188
6.4048e-02,0.0148125
6.4080e-02,0.01525
6.4112e-02,0.0153438
6.4144e-02,0.0145938
6.4176e-02,0.0147188
6.4208e-02,0.0160313
6.4240e-02,0.0161563
6.4272e-02,0.015875
6.4304e-02,0.016125
6.4336e-02,0.0169375
6.4368e-02,0.0170625
6.4400e-02,0.0165313
6.4432e-02,0.01625
6.4464e-02,0.0164063
6.4496e-02,0.0167813
6.4528e-02,0.0154375
6.4560e-02,0.0161563
6.4592e-02,0.0160625
6.4624e-02,0.0177188
6.4656e-02,0.017125
6.4688e-02,0.017125
6.4720e-02,0.0171875
6.4752e-02,0.0168125
6.4784e-02,0.0164063
6.4816e-02,0.0165313
6.4848e-02,0.01725
6.4880e-02,0.0180313
6.4912e-02,0.0181875
6.4944e-02,0.0180938
6.4976e-02,0.0185938
6.5008e-02,0.0187813
6.5040e-02,0.0183438
6.5072e-02,0.0188438
6.5104e-02,0.0187813
6.5136e-02,0.019125
6.5168e-02,0.01975
6.5200e-02,0.0197188
6.5232e-02,0.0205
6.5264e-02,0.0203438
6.5296e-02,0.0199063
6.5328e-02,0.0206875
6.5360e-02,0.0206563
6.5392e-02,0.0205625
6.5424e-02,0.0208438
6.5456e-02,0.0204375
6.5488e-02,0.0197813
6.5520e-02,0.0195938
6.5552e-02,0.0198125
6.5584e-02,0.0198125
6.5616e-02,0.0195313
6.5648e-02,0.019625
6.5680e-02,0.0193125
6.5712e-02,0.0191875
6.5744e-02,0.0187188
6.5776e-02,0.0185625
6.5808e-02,0.0184375
6.5840e-02,0.0193125
6.5872e-02,0.0193125
6.5904e-02,0.0194688
6.5936e-02,0.0195625
6.5968e-02,0.0195
6.6000e-02,0.01975
6.6032e-02,0.0208438
6.6064e-02,0.0200625
6.6096e-02,0.0208125
6.6128e-02,0.0209375
6.6160e-02,0.0209063
6.6192e-02,0.022125
6.6224e-02,0.023125
6.6256e-02,0.0227813
6.6288e-02,0.0236563
6.6320e-02,0.0257188
6.6352e-02,0.02625
6.6384e-02,0.0266875
6.6416e-02,0.02725
6.6448e-02,0.0299688
6.6480e-02,0.031125
6.6512e-02,0.033125
6.6544e-02,0.0347188
6.6576e-02,0.0370625
6.6608e-02,0.0387188
6.6640e-02,0.0413438
6.6672e-02,0.0434375
6.6704e-02,0.0454063
6.6736e-02,0.0463438
6.6768e-02,0.0470313
6.6800e-02,0.0502813
6.6832e-02,0.0522813
6.6864e-02,0.0540625
6.6896e-02,0.0548125
6.6928e-02,0.0585
6.6960e-02,0.0615
6.6992e-02,0.0650313
6.7024e-02,0.0670938
6.7056e-02,0.0710625
6.7088e-02,0.0746563
6.7120e-02,0.0755313
6.7152e-02,0.0779688
6.7184e-02,0.0787813
6.7216e-02,0.0775
6.7248e-02,0.0788438
6.7280e-02,0.0823125
6.7312e-02,0.0840938
6.7344e-02,0.0861563
6.7376e-02,0.08675
6.7408e-02,0.087875
6.7440e-02,0.0898125
6.7472e-02,0.0953125
6.7504e-02,0.0985
6.7536e-02,0.100188
6.7568e-02,0.102688
6.7600e-02,0.106031
6.7632e-02,0.109094
6.7664e-02,0.112969
6.7696e-02,0.119125
6.7728e-02,0.125969
6.7760e-02,0.130875
6.7792e-02,0.137531
6.7824e-02,0.140313
6.7856e-02,0.144406
6.7888e-02,0.149781
6.7920e-02,0.154969
6.7952e-02,0.15525
6.7984e-02,0.156781
6.8016e-02,0.158406
6.8048e-02,0.161188
6.8080e-02,0.165
6.8112e-02,0.166438
6.8144e-02,0.166063
6.8176e-02,0.161625
6.8208e-02,0.156813
6.8240e-02,0.152688
6.8272e-02,0.147625
6.8304e-02,0.145313
6.8336e-02,0.140125
6.8368e-02,0.138438
6.8400e-02,0.136438
6.8432e-02,0.135906
6.8464e-02,0.134469
6.8496e-02,0.137625
6.8528e-02,0.138875
6.8560e-02,0.139438
6.8592e-02,0.142344
6.8624e-02,0.151156
6.8656e-02,0.158844
6.8688e-02,0.165656
6.8720e-02,0.172156
6.8752e-02,0.185094
6.8784e-02,0.195125
6.8816e-02,0.207781
6.8848e-02,0.226594
6.8880e-02,0.254438
6.8912e-02,0.279219
6.8944e-02,0.304813
6.8976e-02,0.339969
6.9008e-02,0.372969
6.9040e-02,0.415938
6.9072e-02,0.458719
6.9104e-02,0.490719
6.9136e-02,0.521375
6.9168e-02,0.561594
6.9200e-02,0.619813
6.9232e-02,0.677875
6.9264e-02,0.715625
6.9296e-02,0.770063
6.9328e-02,0.822719
6.9360e-02,0.865813
6.9392e-02,0.922031
6.9424e-02,0.972688
6.9456e-02,1.01769
6.9488e-02,1.05975
6.9520e-02,1.09694
6.9552e-02,1.12606
6.9584e-02,1.15563
6.9616e-02,1.18731
6.9648e-02,1.21275
6.9680e-02,1.23609
6.9712e-02,1.23384
6.9744e-02,1.22609
6.9776e-02,1.22794
6.9808e-02,1.24525
6.9840e-02,1.24425
6.9872e-02,1.24944
6.9904e-02,1.23884
6.9936e-02,1.24319
6.9968e-02,1.22413
7.0000e-02,1.19384
7.0032e-02,1.1585
7.0064e-02,1.12909
7.0096e-02,1.10591
7.0128e-02,1.06181
7.0160e-02,1.02416
7.0192e-02,0.97175
7.0224e-02,0.911344
7.0256e-02,0.850719
7.0288e-02,0.788
7.0320e-02,0.718938
7.0352e-02,0.665125
7.0384e-02,0.599563
7.0416e-02,0.532219
7.0448e-02,0.46975
7.0480e-02,0.423469
7.0512e-02,0.377375
7.0544e-02,0.342906
7.0576e-02,0.304063
7.0608e-02,0.272563
7.0640e-02,0.242688
7.0672e-02,0.222375
7.0704e-02,0.203469
7.0736e-02,0.188875
7.0768e-02,0.175438
7.0800e-02,0.163313
7.0832e-02,0.154719
7.0864e-02,0.148156
7.0896e-02,0.144281
7.0928e-02,0.142281
7.0960e-02,0.141188
7.0992e-02,0.138313
7.1024e-02,0.137219
7.1056e-02,0.138406
7.1088e-02,0.135781
7.1120e-02,0.131625
7.1152e-02,0.126156
7.1184e-02,0.125719
7.1216e-02,0.125656
7.1248e-02,0.124063
7.1280e-02,0.121875
7.1312e-02,0.1195
7.1344e-02,0.115875
7.1376e-02,0.110313
7.1408e-02,0.104406
7.1440e-02,0.0987813
7.1472e-02,0.0944063
7.1504e-02,0.0894063
7.1536e-02,0.0840313
7.1568e-02,0.0797813
7.1600e-02,0.07575
7.1632e-02,0.0734688
7.1664e-02,0.0695938
7.1696e-02,0.0660313
7.1728e-02,0.0631563
7.1760e-02,0.05925
7.1792e-02,0.0578125
7.1824e-02,0.0565938
7.1856e-02,0.052625
7.1888e-02,0.0491875
7.1920e-02,0.04775
7.1952e-02,0.047625
7.1984e-02,0.0454063
7.2016e-02,0.0447813
7.2048e-02,0.0429375
7.2080e-02,0.0409375
7.2112e-02,0.0400625
7.2144e-02,0.0392813
7.2176e-02,0.0375
7.2208e-02,0.036
7.2240e-02,0.0339375
7.2272e-02,0.0319688
7.2304e-02,0.0312813
7.2336e-02,0.029625
7.2368e-02,0.02975
7.2400e-02,0.028375
7.2432e-02,0.027875
7.2464e-02,0.0276563
7.2496e-02,0.0260938
7.2528e-02,0.0242813
7.2560e-02,0.0244688
7.2592e-02,0.0221563
7.2624e-02,0.0220625
7.2656e-02,0.0222188
7.2688e-02,0.0217188
7.2720e-02,0.0198125
7.2752e-02,0.0197813
7.2784e-02,0.0201875
7.2816e-02,0.0194688
7.2848e-02,0.0184063
7.2880e-02,0.019
7.2912e-02,0.0183125
7.2944e-02,0.0182813
7.2976e-02,0.0187188
7.3008e-02,0.0185625
7.3040e-02,0.0187813
7.3072e-02,0.0201563
7.3104e-02,0.019
7.3136e-02,0.0193125
7.3168e-02,0.0190938
7.3200e-02,0.0185625
7.3232e-02,0.018125
7.3264e-02,0.018
7.3296e-02,0.0181875
7.3328e-02,0.0190313
7.3360e-02,0.0189375
7.3392e-02,0.0182813
7.3424e-02,0.018125
7.3456e-02,0.0181875
7.3488e-02,0.0175938
7.3520e-02,0.0180938
7.3552e-02,0.0181563
7.3584e-02,0.018125
7.3616e-02,0.0183125
7.3648e-02,0.0190313
7.3680e-02,0.0199688
7.3712e-02,0.0206875
7.3744e-02,0.0220938
7.3776e-02,0.02275
7.3808e-02,0.0222188
7.3840e-02,0.0226563
7.3872e-02,0.0226875
7.3904e-02,0.023625
7.3936e-02,0.0254688
7.3968e-02,0.02725
7.4000e-02,0.0287188
7.4032e-02,0.02975
7.4064e-02,0.0297188
7.4096e-02,0.0304063
7.4128e-02,0.0315625
7.4160e-02,0.0345938
7.4192e-02,0.0350313
7.4224e-02,0.0355
7.4256e-02,0.0362813
7.4288e-02,0.0374375
7.4320e-02,0.0399063
7.4352e-02,0.0424375
7.4384e-02,0.0422188
7.4416e-02,0.0424375
7.4448e-02,0.04275
7.4480e-02,0.0430938
7.4512e-02,0.0452813
7.4544e-02,0.0443125
7.4576e-02,0.045875
7.4608e-02,0.046
7.4640e-02,0.045375
7.4672e-02,0.0435625
7.4704e-02,0.0422188
7.4736e-02,0.0429688
7.4768e-02,0.0416563
7.4800e-02,0.0418125
7.4832e-02,0.0392813
7.4864e-02,0.0367188
7.4896e-02,0.0341563
7.4928e-02,0.0330938
7.4960e-02,0.0306563
7.4992e-02,0.0290313
7.5024e-02,0.0265313
7.5056e-02,0.0256875
7.5088e-02,0.0237188
7.5120e-02,0.02275
7.5152e-02,0.02
7.5184e-02,0.019125
7.5216e-02,0.0180313
7.5248e-02,0.018125
7.5280e-02,0.0178125
7.5312e-02,0.0171875
7.5344e-02,0.0164375
7.5376e-02,0.0165625
7.5408e-02,0.01575
7.5440e-02,0.0158125
7.5472e-02,0.0148438
7.5504e-02,0.0147188
7.5536e-02,0.0147813
7.5568e-02,0.0142188
7.5600e-02,0.0135
7.5632e-02,0.0135
7.5664e-02,0.0140625
7.5696e-02,0.0142188
7.5728e-02,0.0139688
7.5760e-02,0.0139375
7.5792e-02,0.0134375
7.5824e-02,0.0140625
7.5856e-02,0.0140313
7.5888e-02,0.0141875
7.5920e-02,0.0143438
7.5952e-02,0.0145
7.5984e-02,0.0142188
7.6016e-02,0.0139688
7.6048e-02,0.0141563
7.6080e-02,0.0131875
7.6112e-02,0.01275
7.6144e-02,0.0130313
7.6176e-02,0.0140938
7.6208e-02,0.0140313
7.6240e-02,0.0140313
7.6272e-02,0.0141563
7.6304e-02,0.0140313
7.6336e-02,0.0135938
7.6368e-02,0.0140313
7.6400e-02,0.0141563
7.6432e-02,0.014125
7.6464e-02,0.0142813
7.6496e-02,0.0144375
7.6528e-02,0.0144063
7.6560e-02,0.0142813
7.6592e-02,0.0141563
7.6624e-02,0.0139688
7.6656e-02,0.0141563
7.6688e-02,0.0137188
7.6720e-02,0.0140313
7.6752e-02,0.014
7.6784e-02,0.0140625
7.6816e-02,0.0140625
7.6848e-02,0.0140313
7.6880e-02,0.013375
7.6912e-02,0.0124063
7.6944e-02,0.0125625
7.6976e-02,0.0123438
7.7008e-02,0.0128438
7.7040e-02,0.0136875
7.7072e-02,0.0134375
7.7104e-02,0.0135938
7.7136e-02,0.0132188
7.7168e-02,0.0132813
7.7200e-02,0.0139375
7.7232e-02,0.0140625
7.7264e-02,0.0140938
7.7296e-02,0.0146563
7.7328e-02,0.0140938
7.7360e-02,0.014
7.7392e-02,0.0140313
7.7424e-02,0.0144063
7.7456e-02,0.0154375
7.7488e-02,0.0150938
7.7520e-02,0.0144063
7.7552e-02,0.014875
7.7584e-02,0.0145938
7.7616e-02,0.0143125
7.7648e-02,0.0141563
7.7680e-02,0.0135313
7.7712e-02,0.0132813
7.7744e-02,0.0136875
7.7776e-02,0.0127188
7.7808e-02,0.0131563
7.7840e-02,0.0144688
7.7872e-02,0.0140938
7.7904e-02,0.0139375
7.7936e-02,0.0142813
7.7968e-02,0.0142188
7.8000e-02,0.0144688
7.8032e-02,0.0141563
7.8064e-02,0.0138438
7.8096e-02,0.0141563
7.8128e-02,0.0137813
7.8160e-02,0.0139688
7.8192e-02,0.0140938
7.8224e-02,0.0140313
7.8256e-02,0.0136563
7.8288e-02,0.013375
7.8320e-02,0.0137188
7.8352e-02,0.012875
7.8384e-02,0.01325
7.8416e-02,0.0130938
7.8448e-02,0.0140938
7.8480e-02,0.0140938
7.8512e-02,0.0140938
7.8544e-02,0.0121875
7.8576e-02,0.0125938
7.8608e-02,0.0127813
7.8640e-02,0.0140938
7.8672e-02,0.0145313
7.8704e-02,0.0145313
7.8736e-02,0.0142188
7.8768e-02,0.0139063
7.8800e-02,0.0143125
7.8832e-02,0.0140625
7.8864e-02,0.0142188
7.8896e-02,0.0142813
7.8928e-02,0.01425
7.8960e-02,0.014125
7.8992e-02,0.0140313
7.9024e-02,0.0134063
7.9056e-02,0.0132188
7.9088e-02,0.0133438
7.9120e-02,0.0140625
7.9152e-02,0.0140313
7.9184e-02,0.0130625
7.9216e-02,0.0142188
7.9248e-02,0.0142188
7.9280e-02,0.0144688
7.9312e-02,0.0144063
7.9344e-02,0.0140938
7.9376e-02,0.014125
7.9408e-02,0.0139063
7.9440e-02,0.0140313
7.9472e-02,0.014125
7.9504e-02,0.0141875
7.9536e-02,0.0144375
7.9568e-02,0.0130625
7.9600e-02,0.0135313
7.9632e-02,0.013375
7.9664e-02,0.0140938
7.9696e-02,0.0141875
7.9728e-02,0.0147813
7.9760e-02,0.0145938
7.9792e-02,0.014125
7.9824e-02,0.014375
7.9856e-02,0.0144688
7.9888e-02,0.0137188
7.9920e-02,0.013625
7.9952e-02,0.0140938
7.9984e-02,0.0140625
8.0016e-02,0.0139688
8.0048e-02,0.0139375
8.0080e-02,0.0140313
8.0112e-02,0.0141563
8.0144e-02,0.0138125
8.0176e-02,0.0135625
8.0208e-02,0.014
8.0240e-02,0.0140938
8.0272e-02,0.0140625
8.0304e-02,0.01425
8.0336e-02,0.0142813
8.0368e-02,0.01425
8.0400e-02,0.0143438
8.0432e-02,0.0143438
8.0464e-02,0.0144063
8.0496e-02,0.0145
8.0528e-02,0.0146875
8.0560e-02,0.0145
8.0592e-02,0.014625
8.0624e-02,0.0140938
8.0656e-02,0.01425
8.0688e-02,0.014125
8.0720e-02,0.0144063
8.0752e-02,0.0142813
8.0784e-02,0.0143438
8.0816e-02,0.014375
8.0848e-02,0.0142188
8.0880e-02,0.0142813
8.0912e-02,0.0141563
8.0944e-02,0.0140938
8.0976e-02,0.0140313
8.1008e-02,0.0134063
8.1040e-02,0.0140313
8.1072e-02,0.014
8.1104e-02,0.0142188
8.1136e-02,0.0145938
8.1168e-02,0.0144063
8.1200e-02,0.0147188
8.1232e-02,0.0145938
8.1264e-02,0.0149688
8.1296e-02,0.0149063
8.1328e-02,0.0145625
8.1360e-02,0.0144375
8.1392e-02,0.0142813
8.1424e-02,0.0152188
8.1456e-02,0.0161875
8.1488e-02,0.0157188
8.1520e-02,0.0158438
8.1552e-02,0.0152813
8.1584e-02,0.0154063
8.1616e-02,0.0151563
8.1648e-02,0.01525
8.1680e-02,0.01575
8.1712e-02,0.0146875
8.1744e-02,0.0140313
8.1776e-02,0.0148125
8.1808e-02,0.0159063
8.1840e-02,0.0160313
8.1872e-02,0.0165938
8.1904e-02,0.0154688
8.1936e-02,0.0154375
8.1968e-02,0.0151875
8.2000e-02,0.0151875
8.2032e-02,0.0143438
8.2064e-02,0.0145938
8.2096e-02,0.0152188
8.2128e-02,0.0149688
8.2160e-02,0.0153125
8.2192e-02,0.014375
8.2224e-02,0.014625
8.2256e-02,0.0153438
8.2288e-02,0.0146563
8.2320e-02,0.015125
8.2352e-02,0.015625
8.2384e-02,0.0155313
8.2416e-02,0.0168125
8.2448e-02,0.0161875
8.2480e-02,0.0161875
8.2512e-02,0.0165625
8.2544e-02,0.0177188
8.2576e-02,0.0184688
8.2608e-02,0.0182813
8.2640e-02,0.0183438
8.2672e-02,0.0179688
8.2704e-02,0.0185625
8.2736e-02,0.0182188
8.2768e-02,0.0182813
8.2800e-02,0.0184375
8.2832e-02,0.0181875
8.2864e-02,0.0180625
8.2896e-02,0.01825
8.2928e-02,0.0186875
8.2960e-02,0.01875
8.2992e-02,0.0184375
8.3024e-02,0.0190313
8.3056e-02,0.0189375
8.3088e-02,0.01875
8.3120e-02,0.0183125
8.3152e-02,0.0192188
8.3184e-02,0.0197188
8.3216e-02,0.0204688
8.3248e-02,0.0188438
8.3280e-02,0.0198438
8.3312e-02,0.0205
8.3344e-02,0.019375
8.3376e-02,0.0184688
8.3408e-02,0.0179688
8.3440e-02,0.017875
8.3472e-02,0.0180313
8.3504e-02,0.0188438
8.3536e-02,0.0183438
8.3568e-02,0.0185
8.3600e-02,0.0196563
8.3632e-02,0.0199375
8.3664e-02,0.0192188
8.3696e-02,0.0193125
8.3728e-02,0.0190313
8.3760e-02,0.0194375
8.3792e-02,0.0200625
8.3824e-02,0.0205625
8.3856e-02,0.0209063
8.3888e-02,0.0221563
8.3920e-02,0.0223125
8.3952e-02,0.0224688
8.3984e-02,0.0224688
8.4016e-02,0.0251563
8.4048e-02,0.0250313
8.4080e-02,0.0269688
8.4112e-02,0.0271563
8.4144e-02,0.0291875
8.4176e-02,0.029875
8.4208e-02,0.031375
8.4240e-02,0.03375
8.4272e-02,0.0347188
8.4304e-02,0.0346875
8.4336e-02,0.0364375
8.4368e-02,0.0384063
8.4400e-02,0.0394375
8.4432e-02,0.0429063
8.4464e-02,0.0457813
8.4496e-02,0.047375
8.4528e-02,0.0500313
8.4560e-02,0.053375
8.4592e-02,0.055
8.4624e-02,0.056
8.4656e-02,0.0569688
8.4688e-02,0.0589375
8.4720e-02,0.0609063
8.4752e-02,0.0632813
8.4784e-02,0.0662813
8.4816e-02,0.06875
8.4848e-02,0.0733125
8.4880e-02,0.0751563
8.4912e-02,0.07575
8.4944e-02,0.0790625
8.4976e-02,0.0811563
8.5008e-02,0.0842188
8.5040e-02,0.0871563
8.5072e-02,0.0913438
8.5104e-02,0.0941875
8.5136e-02,0.0984375
8.5168e-02,0.104156
8.5200e-02,0.106438
8.5232e-02,0.109531
8.5264e-02,0.113719
8.5296e-02,0.11725
8.5328e-02,0.122
8.5360e-02,0.123813
8.5392e-02,0.126781
8.5424e-02,0.130969
8.5456e-02,0.134125
8.5488e-02,0.140156
8.5520e-02,0.145906
8.5552e-02,0.152156
8.5584e-02,0.155406
8.5616e-02,0.155
8.5648e-02,0.157469
8.5680e-02,0.154938
8.5712e-02,0.153875
8.5744e-02,0.15725
8.5776e-02,0.158344
8.5808e-02,0.158094
8.5840e-02,0.152781
8.5872e-02,0.149281
8.5904e-02,0.144281
8.5936e-02,0.1445
8.5968e-02,0.141344
8.6000e-02,0.138313
8.6032e-02,0.135438
8.6064e-02,0.135031
8.6096e-02,0.134844
8.6128e-02,0.134625
8.6160e-02,0.135906
8.6192e-02,0.139063
8.6224e-02,0.144063
8.6256e-02,0.148813
8.6288e-02,0.158438
8.6320e-02,0.171094
8.6352e-02,0.184406
8.6384e-02,0.198656
8.6416e-02,0.216406
8.6448e-02,0.237844
8.6480e-02,0.261
8.6512e-02,0.285125
8.6544e-02,0.313031
8.6576e-02,0.340844
8.6608e-02,0.363156
8.6640e-02,0.402656
8.6672e-02,0.438469
8.6704e-02,0.475813
8.6736e-02,0.511281
8.6768e-02,0.563844
8.6800e-02,0.612156
8.6832e-02,0.65525
8.6864e-02,0.710594
8.6896e-02,0.766219
8.6928e-02,0.828938
8.6960e-02,0.876531
8.6992e-02,0.930563
8.7024e-02,0.985625
8.7056e-02,1.02722
8.7088e-02,1.07256
8.7120e-02,1.12419
8.7152e-02,1.15963
8.7184e-02,1.18559
8.7216e-02,1.18372
8.7248e-02,1.19384
8.7280e-02,1.21056
8.7312e-02,1.22134
8.7344e-02,1.23053
8.7376e-02,1.24803
8.7408e-02,1.23575
8.7440e-02,1.21819
8.7472e-02,1.21688
8.7504e-02,1.20503
8.7536e-02,1.19709
8.7568e-02,1.16816
8.7600e-02,1.13366
8.7632e-02,1.10119
8.7664e-02,1.06803
8.7696e-02,1.043
8.7728e-02,1.01303
8.7760e-02,0.969406
8.7792e-02,0.901781
8.7824e-02,0.841406
8.7856e-02,0.780156
8.7888e-02,0.714375
8.7920e-02,0.654531
8.7952e-02,0.590531
8.7984e-02,0.527375
8.8016e-02,0.471
8.8048e-02,0.419781
8.8080e-02,0.373219
8.8112e-02,0.338344
8.8144e-02,0.302813
8.8176e-02,0.269313
8.8208e-02,0.239063
8.8240e-02,0.216813
8.8272e-02,0.200594
8.8304e-02,0.185813
8.8336e-02,0.175656
8.8368e-02,0.164781
8.8400e-02,0.153719
8.8432e-02,0.148813
8.8464e-02,0.147063
8.8496e-02,0.144531
8.8528e-02,0.139875
8.8560e-02,0.135906
8.8592e-02,0.133344
8.8624e-02,0.132875
8.8656e-02,0.13325
8.8688e-02,0.129156
8.8720e-02,0.125438
8.8752e-02,0.123125
8.8784e-02,0.119844
8.8816e-02,0.116
8.8848e-02,0.112063
8.8880e-02,0.10975
8.8912e-02,0.106031
8.8944e-02,0.103313
8.8976e-02,0.0984063
8.9008e-02,0.0925625
8.9040e-02,0.0876563
8.9072e-02,0.0835938
8.9104e-02,0.0795313
8.9136e-02,0.0742813
8.9168e-02,0.0700938
8.9200e-02,0.0662813
8.9232e-02,0.0623438
8.9264e-02,0.0590313
8.9296e-02,0.055875
8.9328e-02,0.0536875
8.9360e-02,0.0508438
8.9392e-02,0.0486875
8.9424e-02,0.04625
8.9456e-02,0.0455313
8.9488e-02,0.0433438
8.9520e-02,0.0427813
8.9552e-02,0.0415313
8.9584e-02,0.0405938
8.9616e-02,0.0401563
8.9648e-02,0.0397813
8.9680e-02,0.037875
8.9712e-02,0.036625
8.9744e-02,0.034125
8.9776e-02,0.0334375
8.9808e-02,0.0316563
8.9840e-02,0.0299063
8.9872e-02,0.0285
8.9904e-02,0.0285938
8.9936e-02,0.0264688
8.9968e-02,0.026625
9.0000e-02,0.0252188
9.0032e-02,0.0236875
9.0064e-02,0.0225313
9.0096e-02,0.0221563
9.0128e-02,0.0213125
9.0160e-02,0.0204063
9.0192e-02,0.0200625
9.0224e-02,0.0199063
9.0256e-02,0.020375
9.0288e-02,0.0200313
9.0320e-02,0.0196875
9.0352e-02,0.0199063
9.0384e-02,0.0190313
9.0416e-02,0.0192813
9.0448e-02,0.0182813
9.0480e-02,0.0184688
9.0512e-02,0.0183125
9.0544e-02,0.018375
9.0576e-02,0.0183125
9.0608e-02,0.0178125
9.0640e-02,0.0177813
9.0672e-02,0.0175
9.0704e-02,0.0163438
9.0736e-02,0.0168125
9.0768e-02,0.0162188
9.0800e-02,0.0173438
9.0832e-02,0.0178125
9.0864e-02,0.018125
9.0896e-02,0.018375
9.0928e-02,0.0186563
9.0960e-02,0.0192188
9.0992e-02,0.0190938
9.1024e-02,0.0190625
9.1056e-02,0.0195
9.1088e-02,0.0191563
9.1120e-02,0.0205625
9.1152e-02,0.0213438
9.1184e-02,0.0212813
9.1216e-02,0.0208125
9.1248e-02,0.0217188
9.1280e-02,0.0221563
9.1312e-02,0.02325
9.1344e-02,0.0258438
9.1376e-02,0.0260938
9.1408e-02,0.0266563
9.1440e-02,0.0295
9.1472e-02,0.0290313
9.1504e-02,0.0300313
9.1536e-02,0.0307188
9.1568e-02,0.033625
9.1600e-02,0.0342188
9.1632e-02,0.0346875
9.1664e-02,0.0365625
9.1696e-02,0.0384688
9.1728e-02,0.0389688
9.1760e-02,0.0396875
9.1792e-02,0.0417188
9.1824e-02,0.0433438
9.1856e-02,0.0437188
9.1888e-02,0.0436563
9.1920e-02,0.0455
9.1952e-02,0.045125
9.1984e-02,0.0447813
9.2016e-02,0.0435625
9.2048e-02,0.0449063
9.2080e-02,0.0455313
9.2112e-02,0.04375
9.2144e-02,0.0400938
9.2176e-02,0.0379688
9.2208e-02,0.0368125
9.2240e-02,0.0367813
9.2272e-02,0.036125
9.2304e-02,0.033625
9.2336e-02,0.0324063
9.2368e-02,0.0299063
9.2400e-02,0.0280938
9.2432e-02,0.0280625
9.2464e-02,0.0265313
9.2496e-02,0.025125
9.2528e-02,0.0226563
9.2560e-02,0.0214063
9.2592e-02,0.0198125
9.2624e-02,0.0181563
9.2656e-02,0.01775
9.2688e-02,0.0165938
9.2720e-02,0.0159063
9.2752e-02,0.016125
9.2784e-02,0.0162813
9.2816e-02,0.0159688
9.2848e-02,0.01475
9.2880e-02,0.014875
9.2912e-02,0.0140938
9.2944e-02,0.0140625
9.2976e-02,0.0139688
9.3008e-02,0.0141563
9.3040e-02,0.0145625
9.3072e-02,0.0145
9.3104e-02,0.0148438
9.3136e-02,0.0156875
9.3168e-02,0.0148125
9.3200e-02,0.01475
9.3232e-02,0.0144063
9.3264e-02,0.0141563
9.3296e-02,0.0140313
9.3328e-02,0.0142188
9.3360e-02,0.0139688
9.3392e-02,0.013875
9.3424e-02,0.0136563
9.3456e-02,0.0134688
9.3488e-02,0.0143125
9.3520e-02,0.0141563
9.3552e-02,0.0140938
9.3584e-02,0.013625
9.3616e-02,0.0140313
9.3648e-02,0.014625
9.3680e-02,0.014375
9.3712e-02,0.0144688
9.3744e-02,0.0144375
9.3776e-02,0.014125
9.3808e-02,0.014375
9.3840e-02,0.01425
9.3872e-02,0.014875
9.3904e-02,0.0139063
9.3936e-02,0.0137813
9.3968e-02,0.0129063
9.4000e-02,0.0134063
9.4032e-02,0.01375
9.4064e-02,0.014
9.4096e-02,0.014
9.4128e-02,0.0145
9.4160e-02,0.014125
9.4192e-02,0.0136875
9.4224e-02,0.013875
9.4256e-02,0.0140313
9.4288e-02,0.0140313
9.4320e-02,0.0139063
9.4352e-02,0.0139688
9.4384e-02,0.0144375
9.4416e-02,0.01425
9.4448e-02,0.0145625
9.4480e-02,0.0142188
9.4512e-02,0.0141875
9.4544e-02,0.0138438
9.4576e-02,0.0138125
9.4608e-02,0.0130938
9.4640e-02,0.0127188
9.4672e-02,0.0128125
9.4704e-02,0.0117188
9.4736e-02,0.0129063
9.4768e-02,0.0135625
9.4800e-02,0.014125
9.4832e-02,0.0142188
9.4864e-02,0.01425
9.4896e-02,0.0147813
9.4928e-02,0.0146875
9.4960e-02,0.0144063
9.4992e-02,0.0144688
9.5024e-02,0.0140938
9.5056e-02,0.0140938
9.5088e-02,0.0139063
9.5120e-02,0.0137813
9.5152e-02,0.0139688
9.5184e-02,0.0140625
9.5216e-02,0.0139063
9.5248e-02,0.0139688
9.5280e-02,0.0138125
9.5312e-02,0.0137188
9.5344e-02,0.0133438
9.5376e-02,0.0135313
9.5408e-02,0.0133125
9.5440e-02,0.0126875
9.5472e-02,0.01325
9.5504e-02,0.0139375
9.5536e-02,0.0140938
9.5568e-02,0.0140625
9.5600e-02,0.0140938
9.5632e-02,0.0140313
9.5664e-02,0.0131875
9.5696e-02,0.0126563
9.5728e-02,0.012
9.5760e-02,0.0131563
9.5792e-02,0.0131875
9.5824e-02,0.013375
9.5856e-02,0.013375
9.5888e-02,0.0138125
9.5920e-02,0.013
9.5952e-02,0.0139375
9.5984e-02,0.014125
9.6016e-02,0.01425
9.6048e-02,0.0142188
9.6080e-02,0.0141563
9.6112e-02,0.0138438
9.6144e-02,0.0142188
9.6176e-02,0.0133438
9.6208e-02,0.0130938
9.6240e-02,0.0135
9.6272e-02,0.0131875
9.6304e-02,0.0129375
9.6336e-02,0.0127188
9.6368e-02,0.0132188
9.6400e-02,0.0140313
9.6432e-02,0.0139375
9.6464e-02,0.0139375
9.6496e-02,0.0141875
9.6528e-02,0.0139688
9.6560e-02,0.0142188
9.6592e-02,0.0140938
9.6624e-02,0.0143125
9.6656e-02,0.0141875
9.6688e-02,0.014125
9.6720e-02,0.0140313
9.6752e-02,0.0139375
9.6784e-02,0.01325
9.6816e-02,0.0137188
9.6848e-02,0.0138438
9.6880e-02,0.0139688
9.6912e-02,0.0140313
9.6944e-02,0.0140313
9.6976e-02,0.014125
9.7008e-02,0.0141563
9.7040e-02,0.0138125
9.7072e-02,0.0134375
9.7104e-02,0.0139688
9.7136e-02,0.0143125
9.7168e-02,0.0153125
9.7200e-02,0.0140313
9.7232e-02,0.0148125
9.7264e-02,0.014
9.7296e-02,0.014125
9.7328e-02,0.0139375
9.7360e-02,0.0140625
9.7392e-02,0.0140625
9.7424e-02,0.0142813
9.7456e-02,0.0140938
9.7488e-02,0.0142188
9.7520e-02,0.0142188
9.7552e-02,0.0147813
9.7584e-02,0.0145
9.7616e-02,0.0140625
9.7648e-02,0.014
9.7680e-02,0.01425
9.7712e-02,0.0144063
9.7744e-02,0.0145313
9.7776e-02,0.0140625
9.7808e-02,0.0141563
9.7840e-02,0.0146875
9.7872e-02,0.0152813
9.7904e-02,0.0152188
9.7936e-02,0.0145938
9.7968e-02,0.0140938
9.8000e-02,0.0150625
9.8032e-02,0.01525
9.8064e-02,0.0147813
9.8096e-02,0.014875
9.8128e-02,0.0149375
9.8160e-02,0.0142188
9.8192e-02,0.0150938
9.8224e-02,0.01475
9.8256e-02,0.0144375
9.8288e-02,0.0144063
9.8320e-02,0.0145625
9.8352e-02,0.0145625
9.8384e-02,0.01475
9.8416e-02,0.014875
9.8448e-02,0.01475
9.8480e-02,0.0149688
9.8512e-02,0.0147188
9.8544e-02,0.01525
9.8576e-02,0.0151875
9.8608e-02,0.0146875
9.8640e-02,0.014375
9.8672e-02,0.0145
9.8704e-02,0.0143438
9.8736e-02,0.0143125
9.8768e-02,0.014625
9.8800e-02,0.0143438
9.8832e-02,0.0144063
9.8864e-02,0.0143438
9.8896e-02,0.014375
9.8928e-02,0.0140938
9.8960e-02,0.0141875
9.8992e-02,0.0140625
9.9024e-02,0.0142188
9.9056e-02,0.014375
9.9088e-02,0.0147813
9.9120e-02,0.0157188
9.9152e-02,0.0146563
9.9184e-02,0.0147188
9.9216e-02,0.0144375
9.9248e-02,0.0144063
9.9280e-02,0.014875
9.9312e-02,0.0149063
9.9344e-02,0.0153438
9.9376e-02,0.015125
9.9408e-02,0.014625
9.9440e-02,0.0153125
9.9472e-02,0.0169063
9.9504e-02,0.017
9.9536e-02,0.0167188
9.9568e-02,0.0176563
9.9600e-02,0.0175
9.9632e-02,0.0175
9.9664e-02,0.0180938
9.9696e-02,0.017625
9.9728e-02,0.0171875
9.9760e-02,0.0171875
9.9792e-02,0.0180625
9.9824e-02,0.0180938
9.9856e-02,0.0171875
9.9888e-02,0.0171563
9.9920e-02,0.0171875
9.9952e-02,0.0183438
9.9984e-02,0.0182813
1.0002e-01,0.0184063
1.0005e-01,0.0183125
1.0008e-01,0.0184375
1.0011e-01,0.0188125
1.0014e-01,0.0189688
1.0018e-01,0.0186563
1.0021e-01,0.0197813
1.0024e-01,0.0202188
1.0027e-01,0.0205
1.0030e-01,0.0206563
1.0034e-01,0.0208125
1.0037e-01,0.0205625
1.0040e-01,0.0203438
1.0043e-01,0.0199375
1.0046e-01,0.0189688
1.0050e-01,0.0185625
1.0053e-01,0.018375
1.0056e-01,0.01825
1.0059e-01,0.0183125
1.0062e-01,0.0184063
1.0066e-01,0.0185
1.0069e-01,0.0186563
1.0072e-01,0.01825
1.0075e-01,0.018625
1.0078e-01,0.0195938
1.0082e-01,0.0192813
1.0085e-01,0.018375
1.0088e-01,0.0182188
1.0091e-01,0.0186875
1.0094e-01,0.019125
1.0098e-01,0.0197813
1.0101e-01,0.019875
1.0104e-01,0.0202188
1.0107e-01,0.0205
1.0110e-01,0.0200313
1.0114e-01,0.020625
1.0117e-01,0.0216875
1.0120e-01,0.0219063
1.0123e-01,0.022
1.0126e-01,0.0245938
1.0130e-01,0.026875
1.0133e-01,0.0270938
1.0136e-01,0.027625
1.0139e-01,0.029125
1.0142e-01,0.0304688
1.0146e-01,0.0316875
1.0149e-01,0.0326875
1.0152e-01,0.035125
1.0155e-01,0.0380313
1.0158e-01,0.0381875
1.0162e-01,0.0395313
1.0165e-01,0.0404375
1.0168e-01,0.0426563
1.0171e-01,0.0441875
1.0174e-01,0.0455
1.0178e-01,0.0480313
1.0181e-01,0.0491875
1.0184e-01,0.05325
1.0187e-01,0.0565938
1.0190e-01,0.0600313
1.0194e-01,0.0616875
1.0197e-01,0.06425
1.0200e-01,0.0664375
1.0203e-01,0.0674063
1.0206e-01,0.06975
1.0210e-01,0.0719375
1.0213e-01,0.07675
1.0216e-01,0.0784375
1.0219e-01,0.0789688
1.0222e-01,0.082875
1.0226e-01,0.0871875
1.0229e-01,0.089375
1.0232e-01,0.0909375
1.0235e-01,0.0941563
1.0238e-01,0.0987188
1.0242e-01,0.101
1.0245e-01,0.106094
1.0248e-01,0.106938
1.0251e-01,0.110094
1.0254e-01,0.113406
1.0258e-01,0.115844
1.0261e-01,0.118875
1.0264e-01,0.123188
1.0267e-01,0.128563
1.0270e-01,0.132469
1.0274e-01,0.134344
1.0277e-01,0.137563
1.0280e-01,0.14475
1.0283e-01,0.149031
1.0286e-01,0.153156
1.0290e-01,0.153531
1.0293e-01,0.15625
1.0296e-01,0.155781
1.0299e-01,0.1545
1.0302e-01,0.151156
1.0306e-01,0.148938
1.0309e-01,0.145844
1.0312e-01,0.14525
1.0315e-01,0.144844
1.0318e-01,0.144219
1.0322e-01,0.141906
1.0325e-01,0.141281
1.0328e-01,0.141313
1.0331e-01,0.139656
1.0334e-01,0.140063
1.0338e-01,0.139406
1.0341e-01,0.142688
1.0344e-01,0.145938
1.0347e-01,0.147344
1.0350e-01,0.150781
1.0354e-01,0.155875
1.0357e-01,0.161719
1.0360e-01,0.174844
1.0363e-01,0.1915
1.0366e-01,0.208375
1.0370e-01,0.230438
1.0373e-01,0.248031
1.0376e-01,0.273406
1.0379e-01,0.302188
1.0382e-01,0.333594
1.0386e-01,0.358875
1.0389e-01,0.393781
1.0392e-01,0.435531
1.0395e-01,0.476875
1.0398e-01,0.524156
1.0402e-01,0.562844
1.0405e-01,0.616781
1.0408e-01,0.67025
1.0411e-01,0.712656
1.0414e-01,0.761313
1.0418e-01,0.824344
1.0421e-01,0.879375
1.0424e-01,0.929938
1.0427e-01,0.981969
1.0430e-01,1.02991
1.0434e-01,1.08034
1.0437e-01,1.11109
1.0440e-01,1.13691
1.0443e-01,1.15734
1.0446e-01,1.17184
1.0450e-01,1.16778
1.0453e-01,1.17616
1.0456e-01,1.17881
1.0459e-01,1.18872
1.0462e-01,1.21431
1.0466e-01,1.22828
1.0469e-01,1.22259
1.0472e-01,1.21747
1.0475e-01,1.19931
1.0478e-01,1.19453
1.0482e-01,1.1895
1.0485e-01,1.18109
1.0488e-01,1.17456
1.0491e-01,1.17409
1.0494e-01,1.15631
1.0498e-01,1.13184
1.0501e-01,1.12491
1.0504e-01,1.12791
1.0507e-01,1.13728
1.0510e-01,1.12897
1.0514e-01,1.13138
1.0517e-01,1.1445
1.0520e-01,1.15163
1.0523e-01,1.15713
1.0526e-01,1.16853
1.0530e-01,1.18219
1.0533e-01,1.19575
1.0536e-01,1.21363
1.0539e-01,1.22219
1.0542e-01,1.21225
1.0546e-01,1.20466
1.0549e-01,1.19166
1.0552e-01,1.20256
1.0555e-01,1.19319
1.0558e-01,1.16863
1.0562e-01,1.15263
1.0565e-01,1.11681
1.0568e-01,1.08
1.0571e-01,1.04409
1.0574e-01,0.99475
1.0578e-01,0.925563
1.0581e-01,0.832094
1.0584e-01,0.754906
1.0587e-01,0.681656
1.0590e-01,0.616375
1.0594e-01,0.552625
1.0597e-01,0.4795
1.0600e-01,0.412969
1.0603e-01,0.350563
1.0606e-01,0.300688
1.0610e-01,0.265063
1.0613e-01,0.235875
1.0616e-01,0.216875
1.0619e-01,0.199406
1.0622e-01,0.184375
1.0626e-01,0.17975
1.0629e-01,0.176563
1.0632e-01,0.176656
1.0635e-01,0.174406
1.0638e-01,0.167188
1.0642e-01,0.158094
1.0645e-01,0.144469
1.0648e-01,0.13325
1.0651e-01,0.123094
1.0654e-01,0.11325
1.0658e-01,0.103375
1.0661e-01,0.093125
1.0664e-01,0.0855938
1.0667e-01,0.0788438
1.0670e-01,0.0710938
1.0674e-01,0.0634688
1.0677e-01,0.056125
1.0680e-01,0.0490938
1.0683e-01,0.0429375
1.0686e-01,0.0364688
1.0690e-01,0.0325
1.0693e-01,0.0302188
1.0696e-01,0.02625
1.0699e-01,0.0235938
1.0702e-01,0.0225938
1.0706e-01,0.0227188
1.0709e-01,0.0227188
1.0712e-01,0.02225
1.0715e-01,0.0219688
1.0718e-01,0.0201563
1.0722e-01,0.0199063
1.0725e-01,0.0195625
1.0728e-01,0.0195313
1.0731e-01,0.0183438
1.0734e-01,0.0179375
1.0738e-01,0.0175938
1.0741e-01,0.0172813
1.0744e-01,0.0160313
1.0747e-01,0.0160313
1.0750e-01,0.0162188
1.0754e-01,0.015625
1.0757e-01,0.014625
1.0760e-01,0.0142188
1.0763e-01,0.0142813
1.0766e-01,0.0144063
1.0770e-01,0.0141563
1.0773e-01,0.0142188
1.0776e-01,0.0145938
1.0779e-01,0.01425
1.0782e-01,0.0142188
1.0786e-01,0.0155313
1.0789e-01,0.015875
1.0792e-01,0.014125
1.0795e-01,0.0141875
1.0798e-01,0.0139688
1.0802e-01,0.0135
1.0805e-01,0.0130625
1.0808e-01,0.01325
1.0811e-01,0.014
1.0814e-01,0.0141563
1.0818e-01,0.0140313
1.0821e-01,0.0145
1.0824e-01,0.014
1.0827e-01,0.0148438
1.0830e-01,0.0147813
1.0834e-01,0.0145
1.0837e-01,0.0140625
1.0840e-01,0.0139063
1.0843e-01,0.014
1.0846e-01,0.0132813
1.0850e-01,0.013875
1.0853e-01,0.0133438
1.0856e-01,0.0141563
1.0859e-01,0.0140938
1.0862e-01,0.0140313
1.0866e-01,0.0140938
1.0869e-01,0.0144688
1.0872e-01,0.0152813
1.0875e-01,0.016875
1.0878e-01,0.0198438
1.0882e-01,0.0234375
1.0885e-01,0.0281563
1.0888e-01,0.0331563
1.0891e-01,0.0340313
1.0894e-01,0.033
1.0898e-01,0.0304375
1.0901e-01,0.0300938
1.0904e-01,0.0263438
1.0907e-01,0.0241875
1.0910e-01,0.0228125
1.0914e-01,0.0225938
1.0917e-01,0.0218438
1.0920e-01,0.0216563
1.0923e-01,0.0226875
1.0926e-01,0.0260625
1.0930e-01,0.03
1.0933e-01,0.0366563
1.0936e-01,0.0465
1.0939e-01,0.0589063
1.0942e-01,0.076
1.0946e-01,0.0928125
1.0949e-01,0.113125
1.0952e-01,0.146313
1.0955e-01,0.239844
1.0958e-01,0.430469
1.0962e-01,0.658406
1.0965e-01,0.862375
1.0968e-01,0.969313
1.0971e-01,0.970906
1.0974e-01,0.901813
1.0978e-01,0.77975
1.0981e-01,0.644781
1.0984e-01,0.524531
1.0987e-01,0.424875
1.0990e-01,0.349563
1.0994e-01,0.291344
1.0997e-01,0.237531
1.1000e-01,0.195
1.1003e-01,0.15875
1.1006e-01,0.131094
1.1010e-01,0.108719
1.1013e-01,0.0895938
1.1016e-01,0.072875
1.1019e-01,0.0582813
1.1022e-01,0.0466563
1.1026e-01,0.0377188
1.1029e-01,0.0315313
1.1032e-01,0.0279375
1.1035e-01,0.0254375
1.1038e-01,0.0231875
1.1042e-01,0.0224375
1.1045e-01,0.0193125
1.1048e-01,0.0184063
1.1051e-01,0.0182813
1.1054e-01,0.0171563
1.1058e-01,0.0169375
1.1061e-01,0.0165313
1.1064e-01,0.0154375
1.1067e-01,0.0155313
1.1070e-01,0.0156563
1.1074e-01,0.0155938
1.1077e-01,0.015
1.1080e-01,0.01425
1.1083e-01,0.0141563
1.1086e-01,0.0140938
1.1090e-01,0.0141563
1.1093e-01,0.014
1.1096e-01,0.0140938
1.1099e-01,0.0147188
1.1102e-01,0.0149375
1.1106e-01,0.0141563
1.1109e-01,0.0140938
1.1112e-01,0.0141875
1.1115e-01,0.014375
1.1118e-01,0.0139375
1.1122e-01,0.0140313
1.1125e-01,0.0137813
1.1128e-01,0.0139688
1.1131e-01,0.0145313
1.1134e-01,0.0145938
1.1138e-01,0.0150938
1.1141e-01,0.0154688
1.1144e-01,0.0176563
1.1147e-01,0.0220625
1.1150e-01,0.0277188
1.1154e-01,0.0305938
1.1157e-01,0.0313125
1.1160e-01,0.0299063
1.1163e-01,0.0279688
1.1166e-01,0.025625
1.1170e-01,0.02475
1.1173e-01,0.0228125
1.1176e-01,0.0222813
1.1179e-01,0.024125
1.1182e-01,0.0285625
1.1186e-01,0.0335938
1.1189e-01,0.0422813
1.1192e-01,0.0574688
1.1195e-01,0.074625
1.1198e-01,0.093375
1.1202e-01,0.137719
1.1205e-01,0.268875
1.1208e-01,0.507313
1.1211e-01,0.750344
1.1214e-01,0.872406
1.1218e-01,0.881313
1.1221e-01,0.800781
1.1224e-01,0.688656
1.1227e-01,0.572375
1.1230e-01,0.476219
1.1234e-01,0.398031
1.1237e-01,0.325594
1.1240e-01,0.259375
1.1243e-01,0.202938
1.1246e-01,0.158469
1.1250e-01,0.122406
1.1253e-01,0.0949063
1.1256e-01,0.0745313
1.1259e-01,0.0586875
1.1262e-01,0.0465313
1.1266e-01,0.0383125
1.1269e-01,0.0315625
1.1272e-01,0.026
1.1275e-01,0.022125
1.1278e-01,0.0199063
1.1282e-01,0.0191875
1.1285e-01,0.0181875
1.1288e-01,0.0173125
1.1291e-01,0.0165625
1.1294e-01,0.0149375
1.1298e-01,0.0148438
1.1301e-01,0.0145625
1.1304e-01,0.014125
1.1307e-01,0.0144063
1.1310e-01,0.0142813
1.1314e-01,0.0146563
1.1317e-01,0.0150313

